* Measurement data measured by REW V5.20.13
* Source: Headset (KM-HIFI-384KHZ), MICROPHONE (Master Volume), R, volume: 0.250
* Format: 256k Log Swept Sine, 1 sweep at -13.0 dBFS with no timing reference
* Dated: Jul 19, 2023 2:43:10 AM
* REW Settings:
*  C-weighting compensation: Off
*  Target level: 75.0 dB
* Note: ; 
* Measurement: Ambrosia (Brainwavz) R
* Smoothing: 1/24 octave
* Frequency Step: 1/48 octave
* Start Frequency: 20.000 Hz
*
* Freq(Hz)	SPL(dB)	Phase(degrees)
20.000000	90.894	81.6945
20.299999	91.010	81.0558
20.600000	91.123	80.4125
20.900000	91.235	79.7641
21.200001	91.342	79.1150
21.400000	91.412	78.6859
21.799999	91.547	77.8436
22.000000	91.612	77.4335
22.400000	91.740	76.6390
22.700001	91.835	76.0645
23.000000	91.929	75.5045
23.299999	92.022	74.9535
23.600000	92.116	74.4070
24.000000	92.239	73.6795
24.299999	92.329	73.1329
24.700001	92.446	72.4043
25.000000	92.531	71.8610
25.400000	92.641	71.1459
25.799999	92.747	70.4461
26.200001	92.851	69.7629
26.500000	92.927	69.2588
26.900000	93.028	68.5914
27.200001	93.104	68.0887
27.600000	93.202	67.4105
28.000000	93.296	66.7250
28.500000	93.406	65.8744
29.000000	93.511	65.0535
29.500000	93.614	64.2640
30.000000	93.717	63.4818
30.400000	93.799	62.8456
30.700001	93.858	62.3627
31.100000	93.932	61.7217
31.500000	94.002	61.0961
32.000000	94.088	60.3427
32.500000	94.173	59.6070
33.000000	94.256	58.8675
33.500000	94.336	58.1194
34.000000	94.411	57.3738
34.500000	94.480	56.6412
35.000000	94.546	55.9217
35.500000	94.608	55.2110
36.000000	94.666	54.5078
36.500000	94.719	53.8168
37.000000	94.768	53.1479
37.500000	94.813	52.5130
38.200001	94.877	51.6838
38.700001	94.926	51.1110
39.500000	95.007	50.1644
40.000000	95.052	49.5546
40.599998	95.099	48.8394
41.200001	95.141	48.1689
41.799999	95.182	47.5399
42.500000	95.231	46.8366
43.099998	95.272	46.2437
43.700001	95.310	45.6563
44.400002	95.348	45.0047
45.000000	95.379	44.5047
45.500000	95.408	44.1206
46.200001	95.455	43.5753
46.799999	95.494	43.0738
47.500000	95.529	42.5052
48.200001	95.562	42.0197
48.700001	95.592	41.7051
49.400002	95.640	41.2368
50.000000	95.680	40.7919
50.799999	95.724	40.2037
51.500000	95.760	39.7311
52.200001	95.799	39.2621
53.000000	95.841	38.7040
53.799999	95.878	38.1576
54.500000	95.909	37.7016
55.200001	95.941	37.2543
56.000000	95.979	36.7508
57.000000	96.029	36.1193
58.000000	96.077	35.4780
59.000000	96.124	34.8557
60.000000	96.170	34.2381
60.799999	96.203	33.7599
61.500000	96.233	33.3589
62.200001	96.264	32.9525
63.000000	96.297	32.4720
64.000000	96.332	31.8763
65.000000	96.363	31.2974
66.000000	96.392	30.7345
67.000000	96.421	30.1819
68.000000	96.451	29.6246
69.000000	96.479	29.0707
70.000000	96.507	28.5231
71.000000	96.534	27.9723
72.000000	96.560	27.4143
73.000000	96.583	26.8440
74.000000	96.601	26.2607
75.000000	96.613	25.6773
76.199997	96.619	24.9949
77.500000	96.616	24.2864
78.800003	96.601	23.6407
80.000000	96.580	23.1450
81.199997	96.559	22.7517
82.500000	96.546	22.4081
83.800003	96.545	22.0929
85.000000	96.553	21.7817
86.199997	96.565	21.4474
87.500000	96.583	21.0596
88.500000	96.597	20.7382
90.000000	96.613	20.2307
91.199997	96.620	19.8286
92.500000	96.624	19.4130
93.800003	96.625	19.0088
95.000000	96.625	18.6535
96.199997	96.625	18.3075
97.500000	96.625	17.9471
98.800003	96.624	17.6093
100.000000	96.624	17.3133
101.500000	96.624	16.9597
103.000000	96.626	16.5931
104.400002	96.623	16.2329
106.000000	96.616	15.8484
107.500000	96.614	15.4977
109.000000	96.615	15.1211
110.599998	96.613	14.7096
112.000000	96.609	14.3563
113.800003	96.601	13.9141
115.000000	96.593	13.6315
117.199997	96.575	13.1498
118.000000	96.567	12.9863
120.599998	96.542	12.4929
122.000000	96.529	12.2429
124.099998	96.510	11.8860
125.000000	96.502	11.7365
126.500000	96.489	11.4865
128.000000	96.473	11.2410
131.500000	96.431	10.7822
132.000000	96.426	10.7310
134.000000	96.411	10.5375
136.000000	96.402	10.3375
138.000000	96.397	10.1057
140.000000	96.393	9.8392
143.000000	96.383	9.3994
145.000000	96.372	9.0961
147.500000	96.354	8.7370
150.000000	96.332	8.3885
152.500000	96.306	8.0406
155.000000	96.276	7.7177
157.500000	96.246	7.4424
160.000000	96.216	7.1823
162.500000	96.185	6.9005
165.000000	96.156	6.5895
167.500000	96.123	6.2674
170.000000	96.084	5.9694
172.500000	96.036	5.6964
175.000000	95.984	5.4500
177.500000	95.929	5.2385
180.000000	95.871	5.0626
182.500000	95.808	4.9053
185.000000	95.739	4.7794
187.500000	95.665	4.7159
190.000000	95.590	4.7335
192.500000	95.516	4.8323
195.000000	95.448	4.9930
197.500000	95.387	5.1847
200.000000	95.330	5.3882
203.000000	95.262	5.6633
206.000000	95.192	6.0030
209.000000	95.120	6.4431
212.000000	95.055	7.0160
214.000000	95.020	7.4747
218.000000	94.983	8.5067
220.000000	94.984	9.0336
224.000000	95.019	10.0400
227.000000	95.068	10.7170
230.000000	95.134	11.2906
233.000000	95.212	11.7291
236.000000	95.290	12.0547
240.000000	95.385	12.3613
243.000000	95.450	12.5273
247.000000	95.539	12.7076
250.000000	95.604	12.7910
254.000000	95.686	12.8229
258.000000	95.763	12.7797
262.000000	95.833	12.6934
265.000000	95.880	12.6260
269.000000	95.941	12.5357
272.000000	95.986	12.4475
276.000000	96.043	12.2808
280.000000	96.091	12.0492
285.000000	96.136	11.7438
290.000000	96.173	11.4835
295.000000	96.208	11.2405
300.000000	96.237	10.9995
304.000000	96.256	10.8062
307.000000	96.267	10.6609
311.000000	96.277	10.4882
315.000000	96.285	10.3484
320.000000	96.292	10.2156
325.000000	96.301	10.1317
330.000000	96.316	10.0453
335.000000	96.334	9.9321
340.000000	96.351	9.8365
345.000000	96.369	9.7511
350.000000	96.387	9.6397
355.000000	96.402	9.5156
360.000000	96.415	9.4193
365.000000	96.430	9.3436
370.000000	96.447	9.2637
375.000000	96.462	9.1534
382.000000	96.477	8.9960
387.000000	96.488	8.9331
395.000000	96.512	8.8284
400.000000	96.525	8.7552
406.000000	96.543	8.6782
412.000000	96.565	8.5971
418.000000	96.588	8.5033
425.000000	96.616	8.3696
431.000000	96.638	8.2317
437.000000	96.657	8.0677
444.000000	96.671	7.8694
450.000000	96.679	7.7496
455.000000	96.689	7.6816
462.000000	96.710	7.5828
468.000000	96.729	7.4693
475.000000	96.751	7.3003
482.000000	96.771	7.1326
487.000000	96.786	7.0120
494.000000	96.804	6.8095
500.000000	96.814	6.6292
508.000000	96.826	6.4219
515.000000	96.838	6.2659
522.000000	96.854	6.1050
530.000000	96.873	5.8762
538.000000	96.886	5.6201
545.000000	96.895	5.4079
552.000000	96.902	5.2035
560.000000	96.909	4.9859
570.000000	96.924	4.7332
580.000000	96.938	4.3879
590.000000	96.941	4.0492
600.000000	96.948	3.7423
608.000000	96.956	3.4264
615.000000	96.953	3.1139
622.000000	96.939	2.8315
630.000000	96.920	2.5953
640.000000	96.911	2.3324
650.000000	96.898	1.9949
660.000000	96.878	1.7104
670.000000	96.869	1.4189
680.000000	96.857	1.0627
690.000000	96.834	0.6830
700.000000	96.802	0.3285
710.000000	96.766	-0.0035
720.000000	96.724	-0.2988
730.000000	96.683	-0.5640
740.000000	96.637	-0.8071
750.000000	96.595	-0.9868
762.000000	96.547	-1.2434
775.000000	96.484	-1.4761
788.000000	96.429	-1.5753
800.000000	96.398	-1.6992
812.000000	96.370	-1.9430
825.000000	96.322	-2.3036
838.000000	96.253	-2.5532
850.000000	96.205	-2.6681
862.000000	96.177	-2.8778
875.000000	96.145	-3.3336
885.000000	96.092	-3.8071
900.000000	95.968	-4.3587
912.000000	95.863	-4.6647
925.000000	95.734	-4.9781
938.000000	95.583	-5.1082
950.000000	95.449	-5.0237
962.000000	95.334	-4.8325
975.000000	95.227	-4.6517
988.000000	95.115	-4.5278
1000.000000	95.001	-4.3496
1015.000000	94.865	-3.9962
1030.000000	94.743	-3.5507
1044.000000	94.644	-3.1572
1060.000000	94.523	-2.7885
1075.000000	94.399	-2.3417
1090.000000	94.281	-1.8308
1106.000000	94.145	-1.2463
1120.000000	94.016	-0.5743
1138.000000	93.866	0.5909
1150.000000	93.790	1.5206
1172.000000	93.732	3.2484
1180.000000	93.728	3.8010
1206.000000	93.743	5.3648
1220.000000	93.769	6.0184
1241.000000	93.791	6.6932
1250.000000	93.788	6.9595
1265.000000	93.777	7.4147
1280.000000	93.759	7.9193
1315.000000	93.729	9.0234
1320.000000	93.719	9.1738
1340.000000	93.679	9.9266
1360.000000	93.678	10.7497
1380.000000	93.683	11.2584
1400.000000	93.647	11.7805
1430.000000	93.603	12.6975
1450.000000	93.543	13.2443
1475.000000	93.451	14.3002
1500.000000	93.385	15.4761
1525.000000	93.305	16.8276
1550.000000	93.264	18.5177
1575.000000	93.274	20.2206
1600.000000	93.315	21.8307
1625.000000	93.362	23.3784
1650.000000	93.423	25.0106
1675.000000	93.521	26.6680
1700.000000	93.649	28.2295
1725.000000	93.805	29.6842
1750.000000	93.984	30.9351
1775.000000	94.166	31.9576
1800.000000	94.336	32.8061
1825.000000	94.500	33.5931
1850.000000	94.651	34.2077
1875.000000	94.768	34.8499
1900.000000	94.871	35.7216
1925.000000	95.010	36.8336
1950.000000	95.196	37.7979
1975.000000	95.386	38.4980
2000.000000	95.555	39.0576
2030.000000	95.726	39.7159
2060.000000	95.860	40.5709
2090.000000	96.014	41.9534
2120.000000	96.234	43.4610
2140.000000	96.402	44.5417
2180.000000	96.867	46.7592
2200.000000	97.143	47.6713
2240.000000	97.804	49.1833
2270.000000	98.375	49.6059
2300.000000	98.974	49.3009
2330.000000	99.536	48.0501
2360.000000	100.000	46.1185
2400.000000	100.454	42.9993
2430.000000	100.653	40.7576
2470.000000	100.842	38.5244
2500.000000	100.983	37.3065
2540.000000	101.219	35.8672
2580.000000	101.479	34.3297
2620.000000	101.742	32.7250
2650.000000	101.966	31.3997
2690.000000	102.252	29.0543
2720.000000	102.398	26.9786
2760.000000	102.491	24.4606
2800.000000	102.565	22.5093
2850.000000	102.720	20.3052
2900.000000	102.891	17.8107
2950.000000	103.059	15.0754
3000.000000	103.194	11.9299
3040.000000	103.246	9.1986
3070.000000	103.248	7.1360
3110.000000	103.206	4.4705
3150.000000	103.123	1.9880
3200.000000	102.997	-0.8029
3250.000000	102.874	-3.4703
3300.000000	102.738	-6.2079
3350.000000	102.570	-9.0840
3400.000000	102.336	-12.1171
3450.000000	102.007	-15.0721
3500.000000	101.565	-17.6764
3550.000000	101.023	-19.3937
3600.000000	100.478	-19.9155
3650.000000	100.040	-19.7239
3700.000000	99.709	-19.6368
3750.000000	99.384	-19.8895
3820.000000	98.812	-20.0472
3870.000000	98.334	-19.1215
3950.000000	97.797	-15.6713
4000.000000	97.680	-13.6263
4060.000000	97.626	-11.9578
4120.000000	97.569	-10.9581
4180.000000	97.463	-10.2405
4250.000000	97.282	-9.0626
4310.000000	97.145	-7.6016
4370.000000	97.059	-5.8964
4440.000000	97.039	-3.7520
4500.000000	97.105	-1.9741
4550.000000	97.209	-0.6970
4620.000000	97.397	0.6890
4680.000000	97.575	1.5626
4750.000000	97.804	2.3241
4820.000000	98.064	2.8460
4870.000000	98.276	3.0342
4940.000000	98.598	2.7636
5000.000000	98.852	1.9778
5080.000000	99.128	0.5455
5150.000000	99.347	-0.7869
5220.000000	99.592	-2.3409
5300.000000	99.890	-4.8560
5380.000000	100.113	-8.3611
5450.000000	100.203	-11.7885
5520.000000	100.247	-15.3033
5600.000000	100.276	-20.0544
5700.000000	100.039	-27.5964
5800.000000	99.322	-34.7562
5900.000000	98.303	-39.8802
6000.000000	97.177	-43.3381
6080.000000	96.191	-45.0381
6150.000000	95.282	-45.4967
6220.000000	94.378	-45.0409
6300.000000	93.388	-43.5788
6400.000000	92.231	-40.5468
6500.000000	91.175	-36.3571
6600.000000	90.211	-30.8935
6700.000000	89.411	-23.7309
6800.000000	88.968	-15.3290
6900.000000	88.957	-7.1183
7000.000000	89.262	-0.0634
7100.000000	89.752	5.5956
7200.000000	90.365	9.8076
7300.000000	91.006	12.3566
7400.000000	91.562	13.4948
7500.000000	91.993	13.9446
7620.000000	92.421	14.3602
7750.000000	92.863	14.3815
7880.000000	93.200	13.5448
8000.000000	93.337	12.6628
8120.000000	93.365	12.5136
8250.000000	93.406	13.5000
8380.000000	93.621	15.4450
8500.000000	94.111	17.2215
8620.000000	94.872	17.4309
8750.000000	95.757	14.4941
8850.000000	96.310	9.8229
9000.000000	96.657	-0.7588
9120.000000	96.277	-10.7197
9250.000000	95.130	-19.7207
9380.000000	93.406	-24.3399
9500.000000	91.557	-23.8663
9620.000000	89.742	-19.0359
9750.000000	88.157	-10.2058
9880.000000	87.203	0.1589
10000.000000	86.807	9.6606
10150.000000	86.782	21.1630
10300.000000	87.252	31.9963
10440.000000	88.143	40.9632
10600.000000	89.652	48.8402
10750.000000	91.448	53.0255
10900.000000	93.556	53.1241
11060.000000	95.808	45.5854
11200.000000	96.951	29.7108
11380.000000	96.107	6.3985
11500.000000	94.169	0.5195
11720.000000	90.510	12.9980
11800.000000	90.103	20.4385
12060.000000	91.974	37.4201
12200.000000	93.664	39.4703
12410.000000	95.974	32.8013
12500.000000	96.691	26.5261
12650.000000	97.294	12.6273
12800.000000	97.005	-2.7018
13150.000000	93.258	-23.6674
13200.000000	92.519	-24.1173
13400.000000	89.562	-20.9504
13600.000000	86.782	-10.5555
13800.000000	84.500	9.8223
14000.000000	84.736	37.5714
14300.000000	90.277	68.4908
14500.000000	94.550	72.4081
14750.000000	98.756	56.5010
15000.000000	100.634	22.2175
15250.000000	99.852	-13.9222
15500.000000	97.088	-36.8866
15750.000000	93.653	-46.2825
16000.000000	90.479	-47.7739
16250.000000	87.679	-41.1816
16500.000000	86.418	-26.8902
16750.000000	88.037	-16.9362
17000.000000	90.044	-25.6124
17250.000000	90.011	-49.4246
17500.000000	87.482	-66.7164
17750.000000	83.448	-66.7891
18000.000000	79.520	-55.9423
18250.000000	76.907	-43.4955
18500.000000	75.205	-32.1003
18750.000000	74.179	-18.6343
19000.000000	74.676	-9.4642
19250.000000	75.241	-13.3657
19500.000000	74.688	-23.3812
19750.000000	73.409	-31.3087
