* Measurement data measured by REW V5.20.13
* Source: Headset (KM-HIFI-384KHZ), MICROPHONE (Master Volume), L, volume: 0.250
* Format: 256k Log Swept Sine, 1 sweep at -13.0 dBFS with no timing reference
* Dated: Jul 19, 2023 1:59:52 AM
* REW Settings:
*  C-weighting compensation: Off
*  Target level: 75.0 dB
* Note: ; 
* Measurement: Ambrosia (Brainwavz) L
* Smoothing: 1/24 octave
* Frequency Step: 1/48 octave
* Start Frequency: 20.000 Hz
*
* Freq(Hz)	SPL(dB)	Phase(degrees)
20.000000	91.112	86.6209
20.299999	91.231	85.9766
20.600000	91.349	85.3481
20.900000	91.466	84.7271
21.200001	91.583	84.1065
21.400000	91.659	83.6915
21.799999	91.808	82.8625
22.000000	91.881	82.4521
22.400000	92.021	81.6483
22.700001	92.123	81.0653
23.000000	92.223	80.4994
23.299999	92.323	79.9452
23.600000	92.422	79.3974
24.000000	92.552	78.6703
24.299999	92.647	78.1263
24.700001	92.770	77.4084
25.000000	92.859	76.8816
25.400000	92.975	76.1991
25.799999	93.091	75.5347
26.200001	93.207	74.8740
26.500000	93.293	74.3713
26.900000	93.405	73.6864
27.200001	93.485	73.1660
27.600000	93.587	72.4782
28.000000	93.683	71.8176
28.500000	93.800	71.0456
29.000000	93.922	70.3117
29.500000	94.047	69.5696
30.000000	94.172	68.7886
30.400000	94.267	68.1431
30.700001	94.334	67.6585
31.100000	94.420	67.0253
31.500000	94.503	66.4112
32.000000	94.604	65.6643
32.500000	94.702	64.9322
33.000000	94.799	64.2155
33.500000	94.895	63.5119
34.000000	94.991	62.8003
34.500000	95.085	62.0567
35.000000	95.172	61.2853
35.500000	95.248	60.5242
36.000000	95.317	59.8096
36.500000	95.386	59.1415
37.000000	95.458	58.4879
37.500000	95.531	57.8210
38.200001	95.625	56.8679
38.700001	95.686	56.1986
39.500000	95.778	55.1812
40.000000	95.833	54.5763
40.599998	95.900	53.8680
41.200001	95.966	53.1633
41.799999	96.029	52.4608
42.500000	96.097	51.6614
43.099998	96.153	50.9987
43.700001	96.209	50.3472
44.400002	96.271	49.6023
45.000000	96.325	48.9861
45.500000	96.371	48.4781
46.200001	96.437	47.7437
46.799999	96.490	47.0913
47.500000	96.544	46.3459
48.200001	96.595	45.6353
48.700001	96.631	45.1354
49.400002	96.677	44.4390
50.000000	96.712	43.8630
50.799999	96.756	43.1348
51.500000	96.794	42.5150
52.200001	96.828	41.9067
53.000000	96.866	41.2348
53.799999	96.903	40.5766
54.500000	96.934	40.0083
55.200001	96.966	39.4510
56.000000	97.003	38.8122
57.000000	97.043	38.0139
58.000000	97.078	37.2898
59.000000	97.121	36.6198
60.000000	97.165	35.9385
60.799999	97.197	35.3993
61.500000	97.225	34.9324
62.200001	97.250	34.4627
63.000000	97.277	33.9286
64.000000	97.308	33.2704
65.000000	97.336	32.6198
66.000000	97.363	31.9973
67.000000	97.394	31.3935
68.000000	97.425	30.7870
69.000000	97.457	30.1868
70.000000	97.490	29.5755
71.000000	97.519	28.9393
72.000000	97.542	28.3032
73.000000	97.562	27.6733
74.000000	97.580	27.0381
75.000000	97.595	26.3956
76.199997	97.607	25.6323
77.500000	97.615	24.8369
78.800003	97.617	24.0782
80.000000	97.614	23.4183
81.199997	97.607	22.7854
82.500000	97.592	22.1426
83.800003	97.577	21.5500
85.000000	97.564	21.0312
86.199997	97.551	20.5449
87.500000	97.539	20.0652
88.500000	97.531	19.7150
90.000000	97.519	19.2006
91.199997	97.509	18.7926
92.500000	97.496	18.3445
93.800003	97.483	17.8926
95.000000	97.473	17.4823
96.199997	97.464	17.0811
97.500000	97.454	16.6636
98.800003	97.443	16.2744
100.000000	97.432	15.9296
101.500000	97.414	15.5038
103.000000	97.394	15.0867
104.400002	97.376	14.7002
106.000000	97.355	14.2853
107.500000	97.337	13.9353
109.000000	97.319	13.6268
110.599998	97.300	13.3269
112.000000	97.284	13.0771
113.800003	97.267	12.7610
115.000000	97.258	12.5450
117.199997	97.245	12.1340
118.000000	97.241	11.9810
120.599998	97.222	11.4828
122.000000	97.210	11.2281
124.099998	97.192	10.8556
125.000000	97.184	10.7004
126.500000	97.171	10.4475
128.000000	97.157	10.2002
131.500000	97.127	9.6138
132.000000	97.123	9.5273
134.000000	97.103	9.1877
136.000000	97.082	8.8659
138.000000	97.058	8.5522
140.000000	97.032	8.2375
143.000000	96.985	7.7838
145.000000	96.949	7.5168
147.500000	96.901	7.2231
150.000000	96.856	6.9694
152.500000	96.810	6.7431
155.000000	96.756	6.5764
157.500000	96.692	6.4728
160.000000	96.625	6.4445
162.500000	96.566	6.5250
165.000000	96.521	6.7274
167.500000	96.497	7.0135
170.000000	96.500	7.2898
172.500000	96.525	7.4688
175.000000	96.561	7.4928
177.500000	96.588	7.3724
180.000000	96.598	7.1986
182.500000	96.597	7.0638
185.000000	96.596	6.9846
187.500000	96.599	6.9081
190.000000	96.602	6.7993
192.500000	96.602	6.6666
195.000000	96.598	6.5270
197.500000	96.591	6.3910
200.000000	96.583	6.2635
203.000000	96.573	6.1211
206.000000	96.564	5.9785
209.000000	96.554	5.8312
212.000000	96.538	5.7010
214.000000	96.526	5.6328
218.000000	96.504	5.5078
220.000000	96.493	5.4435
224.000000	96.470	5.3314
227.000000	96.449	5.2700
230.000000	96.424	5.2369
233.000000	96.402	5.2419
236.000000	96.386	5.2741
240.000000	96.371	5.3251
243.000000	96.361	5.3497
247.000000	96.349	5.3817
250.000000	96.342	5.4163
254.000000	96.336	5.4522
258.000000	96.331	5.4558
262.000000	96.321	5.4474
265.000000	96.311	5.4568
269.000000	96.300	5.5085
272.000000	96.296	5.5699
276.000000	96.297	5.6414
280.000000	96.299	5.6880
285.000000	96.299	5.7314
290.000000	96.299	5.7720
295.000000	96.299	5.7939
300.000000	96.297	5.8229
304.000000	96.298	5.8588
307.000000	96.300	5.8802
311.000000	96.303	5.8914
315.000000	96.303	5.8845
320.000000	96.299	5.8943
325.000000	96.292	5.9460
330.000000	96.286	6.0249
335.000000	96.282	6.1363
340.000000	96.284	6.2724
345.000000	96.292	6.4053
350.000000	96.304	6.5201
355.000000	96.318	6.6139
360.000000	96.334	6.6904
365.000000	96.351	6.7427
370.000000	96.367	6.7841
375.000000	96.383	6.8348
382.000000	96.409	6.8946
387.000000	96.427	6.9080
395.000000	96.451	6.8849
400.000000	96.463	6.8829
406.000000	96.479	6.9012
412.000000	96.496	6.9082
418.000000	96.509	6.9070
425.000000	96.522	6.9529
431.000000	96.540	7.0349
437.000000	96.567	7.0829
444.000000	96.598	7.0647
450.000000	96.621	7.0605
455.000000	96.643	7.0751
462.000000	96.679	7.0661
468.000000	96.711	7.0057
475.000000	96.738	6.9099
482.000000	96.762	6.8301
487.000000	96.781	6.7696
494.000000	96.808	6.6616
500.000000	96.830	6.5612
508.000000	96.857	6.4260
515.000000	96.880	6.3218
522.000000	96.908	6.2219
530.000000	96.940	6.0349
538.000000	96.963	5.8034
545.000000	96.976	5.6498
552.000000	96.997	5.5345
560.000000	97.028	5.3394
570.000000	97.056	5.0104
580.000000	97.077	4.7462
590.000000	97.109	4.4178
600.000000	97.125	3.9728
608.000000	97.124	3.6812
615.000000	97.127	3.4678
622.000000	97.132	3.2305
630.000000	97.133	2.9315
640.000000	97.128	2.6071
650.000000	97.130	2.3109
660.000000	97.136	1.9631
670.000000	97.137	1.5496
680.000000	97.130	1.1151
690.000000	97.118	0.6768
700.000000	97.098	0.2440
710.000000	97.075	-0.1790
720.000000	97.050	-0.6460
730.000000	97.012	-1.1660
740.000000	96.954	-1.6365
750.000000	96.890	-2.0002
762.000000	96.816	-2.3686
775.000000	96.740	-2.7412
788.000000	96.656	-3.1118
800.000000	96.569	-3.3963
812.000000	96.474	-3.6009
825.000000	96.382	-3.6383
838.000000	96.310	-3.6964
850.000000	96.249	-3.7664
862.000000	96.202	-3.9128
875.000000	96.148	-4.2286
885.000000	96.095	-4.5547
900.000000	95.982	-5.1486
912.000000	95.851	-5.5535
925.000000	95.682	-5.7933
938.000000	95.502	-5.7668
950.000000	95.347	-5.5220
962.000000	95.212	-5.1729
975.000000	95.079	-4.7700
988.000000	94.952	-4.3174
1000.000000	94.844	-3.8466
1015.000000	94.720	-3.2261
1030.000000	94.604	-2.5533
1044.000000	94.505	-1.8435
1060.000000	94.405	-0.9542
1075.000000	94.339	-0.0095
1090.000000	94.327	0.7714
1106.000000	94.315	1.2339
1120.000000	94.276	1.5500
1138.000000	94.206	2.0156
1150.000000	94.157	2.3330
1172.000000	94.049	2.9712
1180.000000	94.009	3.2555
1206.000000	93.898	4.2689
1220.000000	93.848	4.7786
1241.000000	93.752	5.5588
1250.000000	93.711	5.9520
1265.000000	93.658	6.6234
1280.000000	93.614	7.2041
1315.000000	93.439	8.6366
1320.000000	93.414	8.9089
1340.000000	93.331	9.9896
1360.000000	93.237	11.2288
1380.000000	93.188	12.7348
1400.000000	93.183	14.0438
1430.000000	93.175	16.0379
1450.000000	93.212	17.2748
1475.000000	93.258	18.6144
1500.000000	93.323	19.8025
1525.000000	93.358	20.6207
1550.000000	93.342	21.5253
1575.000000	93.303	22.6313
1600.000000	93.242	24.0222
1625.000000	93.198	25.8581
1650.000000	93.206	28.0389
1675.000000	93.310	30.3829
1700.000000	93.509	32.3240
1725.000000	93.715	33.7191
1750.000000	93.904	34.7974
1775.000000	94.057	35.6861
1800.000000	94.184	36.5573
1825.000000	94.270	37.4976
1850.000000	94.347	38.7825
1875.000000	94.453	40.3439
1900.000000	94.604	42.0716
1925.000000	94.811	43.8326
1950.000000	95.075	45.4615
1975.000000	95.384	46.7721
2000.000000	95.696	47.7000
2030.000000	96.054	48.5813
2060.000000	96.413	49.2874
2090.000000	96.767	49.7712
2120.000000	97.113	50.1339
2140.000000	97.345	50.3015
2180.000000	97.812	50.4534
2200.000000	98.046	50.4286
2240.000000	98.492	50.1836
2270.000000	98.799	50.0092
2300.000000	99.128	49.8770
2330.000000	99.478	49.5594
2360.000000	99.834	49.0554
2400.000000	100.316	48.0581
2430.000000	100.682	46.9424
2470.000000	101.116	44.8763
2500.000000	101.372	43.0399
2540.000000	101.609	40.7547
2580.000000	101.797	38.9549
2620.000000	102.028	37.6030
2650.000000	102.248	36.5269
2690.000000	102.565	34.6031
2720.000000	102.772	32.8497
2760.000000	103.013	30.3604
2800.000000	103.221	27.6154
2850.000000	103.373	23.8765
2900.000000	103.415	20.4552
2950.000000	103.433	17.4147
3000.000000	103.440	14.4184
3040.000000	103.425	11.9886
3070.000000	103.394	10.1647
3110.000000	103.328	7.7982
3150.000000	103.242	5.4833
3200.000000	103.102	2.6390
3250.000000	102.927	-0.2084
3300.000000	102.675	-3.0343
3350.000000	102.344	-5.3898
3400.000000	101.990	-7.1321
3450.000000	101.655	-8.4676
3500.000000	101.342	-9.5839
3550.000000	101.048	-10.5973
3600.000000	100.760	-11.6514
3650.000000	100.443	-12.7711
3700.000000	100.064	-13.7631
3750.000000	99.621	-14.2511
3820.000000	98.991	-13.5831
3870.000000	98.632	-12.3925
3950.000000	98.250	-10.3981
4000.000000	98.081	-9.4101
4060.000000	97.900	-8.5533
4120.000000	97.697	-7.9730
4180.000000	97.439	-7.3711
4250.000000	97.084	-6.2057
4310.000000	96.785	-4.6698
4370.000000	96.530	-2.7135
4440.000000	96.307	-0.1243
4500.000000	96.174	2.2448
4550.000000	96.104	4.3217
4620.000000	96.082	7.2756
4680.000000	96.132	9.7316
4750.000000	96.260	12.3834
4820.000000	96.444	14.6882
4870.000000	96.587	16.0973
4940.000000	96.775	17.9141
5000.000000	96.935	19.6546
5080.000000	97.251	22.5103
5150.000000	97.727	25.0338
5220.000000	98.384	26.7922
5300.000000	99.261	27.3278
5380.000000	100.188	25.9106
5450.000000	100.921	22.7806
5520.000000	101.478	18.3480
5600.000000	101.918	12.5284
5700.000000	102.238	4.0742
5800.000000	102.132	-5.8244
5900.000000	101.446	-15.4964
6000.000000	100.216	-22.4152
6080.000000	99.049	-25.1399
6150.000000	98.026	-25.8698
6220.000000	97.026	-25.2572
6300.000000	95.955	-22.8470
6400.000000	94.893	-17.8414
6500.000000	94.244	-12.0541
6600.000000	93.947	-6.5719
6700.000000	93.891	-1.8175
6800.000000	94.026	1.9376
6900.000000	94.273	4.0327
7000.000000	94.413	4.2108
7100.000000	94.253	3.9033
7200.000000	93.884	5.0165
7300.000000	93.540	8.0404
7400.000000	93.457	12.1957
7500.000000	93.645	15.6599
7620.000000	93.922	18.2951
7750.000000	94.190	20.5189
7880.000000	94.469	22.2565
8000.000000	94.671	23.2450
8120.000000	94.716	24.3140
8250.000000	94.680	27.3983
8380.000000	95.000	32.7669
8500.000000	95.860	37.5550
8620.000000	97.094	39.8739
8750.000000	98.499	38.4960
8850.000000	99.445	34.7822
9000.000000	100.414	25.8116
9120.000000	100.696	17.1387
9250.000000	100.524	8.0699
9380.000000	99.973	0.5179
9500.000000	99.245	-4.7325
9620.000000	98.404	-8.2860
9750.000000	97.471	-10.5391
9880.000000	96.574	-11.7930
10000.000000	95.743	-12.4719
10150.000000	94.601	-12.3346
10300.000000	93.329	-9.8045
10440.000000	92.181	-4.4506
10600.000000	91.242	5.1171
10750.000000	91.169	16.4225
10900.000000	92.249	26.8483
11060.000000	94.189	31.6834
11200.000000	95.690	28.0923
11380.000000	96.570	15.5319
11500.000000	96.311	6.0349
11720.000000	94.306	-1.9138
11800.000000	93.432	-0.7103
12060.000000	91.733	10.3959
12200.000000	91.611	17.6281
12410.000000	92.388	28.8623
12500.000000	93.179	33.3748
12650.000000	95.059	38.4180
12800.000000	97.058	37.1868
13150.000000	99.071	13.9489
13200.000000	99.048	10.6423
13400.000000	98.712	0.6818
13600.000000	98.467	-6.4758
13800.000000	98.337	-14.0684
14000.000000	98.123	-22.8130
14300.000000	97.413	-37.7172
14500.000000	96.621	-47.6723
14750.000000	95.621	-60.3979
15000.000000	94.697	-79.3840
15250.000000	92.640	-104.8502
15500.000000	88.812	-127.3249
15750.000000	83.681	-151.0817
16000.000000	77.707	161.7160
16250.000000	74.776	90.4454
16500.000000	77.593	39.9512
16750.000000	79.850	16.0102
17000.000000	81.235	3.2034
17250.000000	82.510	-9.1508
17500.000000	82.809	-30.3638
17750.000000	81.143	-54.8503
18000.000000	77.668	-80.1364
18250.000000	72.667	-127.5096
18500.000000	68.377	149.8296
18750.000000	69.617	86.1672
19000.000000	71.230	59.8420
19250.000000	71.550	48.8253
19500.000000	71.122	40.9579
19750.000000	70.263	31.4281
