* Measurement data measured by REW V5.20.13
* Source: Headset (KM-HIFI-384KHZ), MICROPHONE (Master Volume), L, volume: 0.250
* Format: 256k Log Swept Sine, 1 sweep at -13.0 dBFS with no timing reference
* Dated: Jul 19, 2023 2:06:01 AM
* REW Settings:
*  C-weighting compensation: Off
*  Target level: 75.0 dB
* Note: ; 
* Measurement: Ambrosia (Dekoni) L
* Smoothing: 1/24 octave
* Frequency Step: 1/48 octave
* Start Frequency: 20.000 Hz
*
* Freq(Hz)	SPL(dB)	Phase(degrees)
20.000000	89.265	88.4482
20.299999	89.391	87.7905
20.600000	89.513	87.1407
20.900000	89.633	86.5015
21.200001	89.749	85.8754
21.400000	89.826	85.4653
21.799999	89.977	84.6575
22.000000	90.051	84.2566
22.400000	90.197	83.4548
22.700001	90.303	82.8530
23.000000	90.404	82.2576
23.299999	90.500	81.6797
23.600000	90.594	81.1276
24.000000	90.717	80.4355
24.299999	90.810	79.9404
24.700001	90.936	79.2877
25.000000	91.031	78.7869
25.400000	91.156	78.0958
25.799999	91.273	77.3917
26.200001	91.384	76.7016
26.500000	91.464	76.2043
26.900000	91.570	75.5665
27.200001	91.650	75.0965
27.600000	91.756	74.4657
28.000000	91.860	73.8247
28.500000	91.983	73.0283
29.000000	92.101	72.2694
29.500000	92.219	71.5519
30.000000	92.340	70.8463
30.400000	92.437	70.2706
30.700001	92.509	69.8295
31.100000	92.602	69.2329
31.500000	92.691	68.6325
32.000000	92.798	67.8839
32.500000	92.898	67.1476
33.000000	92.992	66.4395
33.500000	93.086	65.7649
34.000000	93.182	65.1002
34.500000	93.279	64.4059
35.000000	93.372	63.6660
35.500000	93.454	62.9067
36.000000	93.525	62.1732
36.500000	93.589	61.4957
37.000000	93.652	60.8828
37.500000	93.717	60.3288
38.200001	93.822	59.6088
38.700001	93.907	59.0734
39.500000	94.044	58.0644
40.000000	94.115	57.3623
40.599998	94.180	56.5463
41.200001	94.232	55.8353
41.799999	94.286	55.2179
42.500000	94.354	54.5396
43.099998	94.416	53.9458
43.700001	94.474	53.3339
44.400002	94.536	52.6242
45.000000	94.586	52.0487
45.500000	94.629	51.5914
46.200001	94.697	50.9429
46.799999	94.755	50.3448
47.500000	94.813	49.6233
48.200001	94.863	48.9474
48.700001	94.898	48.5075
49.400002	94.951	47.9183
50.000000	94.998	47.4044
50.799999	95.057	46.7073
51.500000	95.103	46.1147
52.200001	95.148	45.5433
53.000000	95.198	44.8958
53.799999	95.246	44.2466
54.500000	95.284	43.6921
55.200001	95.321	43.1584
56.000000	95.365	42.5571
57.000000	95.417	41.8095
58.000000	95.464	41.1027
59.000000	95.512	40.4084
60.000000	95.551	39.7273
60.799999	95.581	39.2269
61.500000	95.608	38.8010
62.200001	95.635	38.3702
63.000000	95.664	37.8892
64.000000	95.703	37.3177
65.000000	95.745	36.7504
66.000000	95.788	36.1843
67.000000	95.833	35.6332
68.000000	95.880	35.0872
69.000000	95.926	34.5330
70.000000	95.971	33.9671
71.000000	96.014	33.3907
72.000000	96.055	32.7972
73.000000	96.095	32.1671
74.000000	96.129	31.4854
75.000000	96.150	30.7755
76.199997	96.157	29.9717
77.500000	96.153	29.2202
78.800003	96.145	28.6205
80.000000	96.146	28.1846
81.199997	96.161	27.7806
82.500000	96.184	27.3313
83.800003	96.214	26.8658
85.000000	96.245	26.3994
86.199997	96.276	25.9000
87.500000	96.308	25.3341
88.500000	96.331	24.8842
90.000000	96.362	24.1956
91.199997	96.385	23.6326
92.500000	96.405	23.0073
93.800003	96.420	22.3799
95.000000	96.428	21.8048
96.199997	96.431	21.2382
97.500000	96.430	20.6424
98.800003	96.423	20.0532
100.000000	96.411	19.5146
101.500000	96.386	18.8740
103.000000	96.356	18.3096
104.400002	96.331	17.8324
106.000000	96.304	17.3107
107.500000	96.277	16.8664
109.000000	96.251	16.4795
110.599998	96.227	16.0769
112.000000	96.201	15.7274
113.800003	96.165	15.3336
115.000000	96.144	15.0905
117.199997	96.105	14.6785
118.000000	96.092	14.5488
120.599998	96.053	14.1775
122.000000	96.035	13.9901
124.099998	96.013	13.7251
125.000000	96.007	13.6121
126.500000	96.001	13.4196
128.000000	96.000	13.2234
131.500000	95.997	12.7128
132.000000	95.996	12.6388
134.000000	95.992	12.3396
136.000000	95.990	11.9988
138.000000	95.984	11.6158
140.000000	95.971	11.2097
143.000000	95.935	10.6014
145.000000	95.901	10.2420
147.500000	95.857	9.8860
150.000000	95.817	9.5664
152.500000	95.775	9.2469
155.000000	95.732	8.9510
157.500000	95.685	8.6820
160.000000	95.624	8.4915
162.500000	95.558	8.4507
165.000000	95.501	8.5437
167.500000	95.466	8.7086
170.000000	95.453	8.8593
172.500000	95.454	8.9521
175.000000	95.462	8.9801
177.500000	95.473	8.9514
180.000000	95.486	8.8700
182.500000	95.497	8.7333
185.000000	95.499	8.5706
187.500000	95.493	8.4136
190.000000	95.482	8.2692
192.500000	95.469	8.1313
195.000000	95.454	7.9905
197.500000	95.438	7.8491
200.000000	95.419	7.7149
203.000000	95.391	7.5762
206.000000	95.360	7.4886
209.000000	95.333	7.4571
212.000000	95.313	7.4352
214.000000	95.301	7.4105
218.000000	95.281	7.3453
220.000000	95.271	7.3197
224.000000	95.249	7.2894
227.000000	95.229	7.2785
230.000000	95.210	7.2661
233.000000	95.193	7.2416
236.000000	95.176	7.2133
240.000000	95.150	7.2003
243.000000	95.127	7.2273
247.000000	95.102	7.3086
250.000000	95.090	7.3700
254.000000	95.076	7.4274
258.000000	95.060	7.4818
262.000000	95.043	7.5440
265.000000	95.034	7.6050
269.000000	95.024	7.7183
272.000000	95.016	7.8085
276.000000	95.005	7.9042
280.000000	94.993	7.9783
285.000000	94.978	8.0823
290.000000	94.964	8.2068
295.000000	94.952	8.3470
300.000000	94.941	8.5322
304.000000	94.938	8.7000
307.000000	94.938	8.8146
311.000000	94.942	8.9401
315.000000	94.947	9.0442
320.000000	94.949	9.1686
325.000000	94.949	9.2923
330.000000	94.948	9.4316
335.000000	94.947	9.5947
340.000000	94.951	9.7668
345.000000	94.959	9.9298
350.000000	94.967	10.0862
355.000000	94.975	10.2396
360.000000	94.984	10.4025
365.000000	94.997	10.5579
370.000000	95.011	10.7003
375.000000	95.026	10.8407
382.000000	95.050	11.0126
387.000000	95.068	11.1147
395.000000	95.092	11.2711
400.000000	95.107	11.3910
406.000000	95.129	11.5341
412.000000	95.154	11.6368
418.000000	95.174	11.7059
425.000000	95.191	11.8024
431.000000	95.209	11.9126
437.000000	95.232	12.0111
444.000000	95.254	12.0911
450.000000	95.268	12.1882
455.000000	95.282	12.3007
462.000000	95.313	12.4554
468.000000	95.343	12.5404
475.000000	95.371	12.6063
482.000000	95.395	12.6904
487.000000	95.414	12.7526
494.000000	95.443	12.8366
500.000000	95.468	12.9055
508.000000	95.501	12.9817
515.000000	95.530	13.0497
522.000000	95.563	13.1361
530.000000	95.608	13.1864
538.000000	95.650	13.1782
545.000000	95.678	13.1803
552.000000	95.708	13.2128
560.000000	95.752	13.2190
570.000000	95.802	13.1509
580.000000	95.845	13.1254
590.000000	95.902	13.0632
600.000000	95.951	12.8611
608.000000	95.977	12.7396
615.000000	96.002	12.6761
622.000000	96.034	12.5846
630.000000	96.067	12.4219
640.000000	96.100	12.2211
650.000000	96.133	12.0594
660.000000	96.173	11.8685
670.000000	96.212	11.5964
680.000000	96.243	11.2977
690.000000	96.272	10.9917
700.000000	96.296	10.6582
710.000000	96.320	10.3202
720.000000	96.344	9.9213
730.000000	96.358	9.4041
740.000000	96.347	8.8562
750.000000	96.321	8.4005
762.000000	96.283	7.9409
775.000000	96.240	7.4985
788.000000	96.192	7.0480
800.000000	96.135	6.6666
812.000000	96.063	6.4033
825.000000	96.000	6.3536
838.000000	95.972	6.2510
850.000000	95.946	6.0823
862.000000	95.932	5.8480
875.000000	95.918	5.4349
885.000000	95.905	5.0012
900.000000	95.862	4.0051
912.000000	95.761	3.0435
925.000000	95.585	2.1732
938.000000	95.362	1.6395
950.000000	95.137	1.4968
962.000000	94.913	1.6577
975.000000	94.679	2.1092
988.000000	94.460	2.8568
1000.000000	94.287	3.7988
1015.000000	94.133	5.1107
1030.000000	94.029	6.3740
1044.000000	93.966	7.4373
1060.000000	93.904	8.4760
1075.000000	93.848	9.5100
1090.000000	93.830	10.4434
1106.000000	93.800	11.0796
1120.000000	93.734	11.6107
1138.000000	93.622	12.5860
1150.000000	93.555	13.3871
1172.000000	93.440	15.1161
1180.000000	93.411	15.8778
1206.000000	93.418	18.5018
1220.000000	93.484	19.7681
1241.000000	93.614	21.2952
1250.000000	93.677	21.8446
1265.000000	93.790	22.5884
1280.000000	93.901	23.0515
1315.000000	94.029	23.6060
1320.000000	94.040	23.7288
1340.000000	94.088	24.1403
1360.000000	94.092	24.4878
1380.000000	94.088	25.1403
1400.000000	94.109	25.7181
1430.000000	94.083	26.7567
1450.000000	94.096	27.6736
1475.000000	94.129	28.7258
1500.000000	94.192	29.7917
1525.000000	94.262	30.5080
1550.000000	94.290	31.0966
1575.000000	94.272	31.7269
1600.000000	94.212	32.6269
1625.000000	94.143	33.9373
1650.000000	94.087	35.6981
1675.000000	94.091	37.9076
1700.000000	94.199	40.1976
1725.000000	94.374	42.1952
1750.000000	94.575	43.8642
1775.000000	94.769	45.2916
1800.000000	94.971	46.6577
1825.000000	95.159	47.8682
1850.000000	95.345	49.2521
1875.000000	95.573	50.6702
1900.000000	95.820	51.9450
1925.000000	96.083	53.1102
1950.000000	96.349	54.1862
1975.000000	96.642	55.2802
2000.000000	96.969	56.1207
2030.000000	97.345	56.7969
2060.000000	97.710	57.3480
2090.000000	98.070	57.8513
2120.000000	98.462	58.4088
2140.000000	98.747	58.6379
2180.000000	99.316	58.7435
2200.000000	99.602	58.6349
2240.000000	100.181	58.0073
2270.000000	100.591	57.0616
2300.000000	100.947	55.8965
2330.000000	101.263	54.7413
2360.000000	101.558	53.6686
2400.000000	101.957	52.3670
2430.000000	102.286	51.3564
2470.000000	102.744	49.5028
2500.000000	103.054	47.7008
2540.000000	103.395	45.0659
2580.000000	103.666	42.3694
2620.000000	103.892	39.7917
2650.000000	104.039	37.8934
2690.000000	104.221	35.3907
2720.000000	104.330	33.4800
2760.000000	104.442	31.1487
2800.000000	104.577	29.1163
2850.000000	104.818	26.2632
2900.000000	105.024	22.5894
2950.000000	105.120	18.4924
3000.000000	105.103	14.3179
3040.000000	105.009	11.0729
3070.000000	104.895	8.7886
3110.000000	104.696	6.0388
3150.000000	104.471	3.6480
3200.000000	104.166	0.9919
3250.000000	103.835	-1.3178
3300.000000	103.456	-3.3071
3350.000000	103.028	-4.4741
3400.000000	102.662	-4.7576
3450.000000	102.420	-4.8790
3500.000000	102.227	-5.4384
3550.000000	101.980	-6.1246
3600.000000	101.700	-6.2731
3650.000000	101.482	-5.9655
3700.000000	101.341	-5.7369
3750.000000	101.229	-5.7100
3820.000000	101.097	-6.0125
3870.000000	100.984	-6.5190
3950.000000	100.720	-7.4023
4000.000000	100.506	-7.7516
4060.000000	100.230	-7.8039
4120.000000	99.961	-7.5261
4180.000000	99.702	-6.9953
4250.000000	99.416	-6.0587
4310.000000	99.191	-4.9878
4370.000000	98.991	-3.6563
4440.000000	98.812	-1.8286
4500.000000	98.712	-0.1613
4550.000000	98.658	1.2515
4620.000000	98.624	3.2928
4680.000000	98.638	5.0938
4750.000000	98.709	7.2050
4820.000000	98.844	9.3005
4870.000000	98.987	10.7673
4940.000000	99.259	12.6769
5000.000000	99.558	14.0567
5080.000000	100.030	15.3655
5150.000000	100.492	15.9797
5220.000000	101.000	16.1370
5300.000000	101.649	15.6210
5380.000000	102.361	14.1178
5450.000000	103.021	11.7159
5520.000000	103.661	7.9230
5600.000000	104.243	1.8054
5700.000000	104.621	-7.6155
5800.000000	104.589	-18.1063
5900.000000	104.054	-28.7928
6000.000000	103.004	-37.7605
6080.000000	101.894	-42.7323
6150.000000	100.826	-45.1181
6220.000000	99.788	-45.8745
6300.000000	98.734	-45.4907
6400.000000	97.618	-43.9742
6500.000000	96.703	-41.7020
6600.000000	96.006	-39.4318
6700.000000	95.429	-37.8963
6800.000000	94.819	-36.7675
6900.000000	94.133	-35.4229
7000.000000	93.374	-33.2684
7100.000000	92.635	-29.8608
7200.000000	92.007	-25.7491
7300.000000	91.451	-20.8175
7400.000000	91.081	-14.8466
7500.000000	91.019	-8.7906
7620.000000	91.245	-3.0330
7750.000000	91.522	1.0062
7880.000000	91.670	4.1201
8000.000000	91.701	6.9484
8120.000000	91.636	10.6401
8250.000000	91.688	16.6459
8380.000000	92.188	23.7620
8500.000000	93.152	29.8239
8620.000000	94.546	33.5489
8750.000000	96.139	32.9828
8850.000000	97.179	29.4900
9000.000000	98.301	20.9130
9120.000000	98.777	12.0646
9250.000000	98.773	1.3638
9380.000000	98.174	-8.9062
9500.000000	97.133	-16.3557
9620.000000	95.751	-20.8551
9750.000000	94.050	-22.1844
9880.000000	92.295	-19.9017
10000.000000	90.765	-14.7318
10150.000000	89.170	-4.5529
10300.000000	88.235	9.3160
10440.000000	88.409	23.5422
10600.000000	89.800	36.8082
10750.000000	91.673	43.8073
10900.000000	93.632	44.6844
11060.000000	95.301	38.1286
11200.000000	95.939	27.3229
11380.000000	95.302	14.0807
11500.000000	94.107	11.8116
11720.000000	92.854	21.2676
11800.000000	93.115	24.1463
12060.000000	94.069	23.8269
12200.000000	94.122	22.3525
12410.000000	94.160	24.2801
12500.000000	94.484	26.5421
12650.000000	95.738	29.8125
12800.000000	97.437	27.9290
13150.000000	98.698	1.2643
13200.000000	98.486	-2.2249
13400.000000	97.329	-10.9711
13600.000000	96.419	-14.8459
13800.000000	95.954	-18.2054
14000.000000	95.804	-22.7679
14300.000000	95.931	-35.7941
14500.000000	95.823	-51.3812
14750.000000	94.772	-80.5020
15000.000000	91.868	-117.7493
15250.000000	86.680	-161.0062
15500.000000	79.869	141.4391
15750.000000	76.635	87.1475
16000.000000	79.068	59.5880
16250.000000	81.444	46.1793
16500.000000	83.047	35.9051
16750.000000	84.262	26.7998
17000.000000	85.454	15.5475
17250.000000	85.860	-3.2294
17500.000000	84.357	-21.6077
17750.000000	81.136	-25.0133
18000.000000	77.554	-10.4516
18250.000000	76.155	8.7623
18500.000000	76.430	19.5878
18750.000000	76.897	26.2116
19000.000000	77.776	27.7285
19250.000000	78.121	18.8915
19500.000000	76.929	5.9685
19750.000000	74.134	0.7837
