* Measurement data measured by REW V5.20.13
* Source: Headset (KM-HIFI-384KHZ), MICROPHONE (Master Volume), R, volume: 0.250
* Format: 256k Log Swept Sine, 1 sweep at -13.0 dBFS with no timing reference
* Dated: Aug 7, 2023 12:24:57 AM
* REW Settings:
*  C-weighting compensation: Off
*  Target level: 75.0 dB
* Note: 
* Measurement: Aug 7
* Smoothing: 1/24 octave
* Frequency Step: 1/48 octave
* Start Frequency: 20.000 Hz
*
* Freq(Hz)	SPL(dB)	Phase(degrees)
20.000000	70.363	-135.2026
20.299999	70.384	-135.7441
20.600000	70.399	-136.2616
20.900000	70.410	-136.7417
21.200001	70.418	-137.1754
21.400000	70.425	-137.4430
21.799999	70.440	-137.9510
22.000000	70.450	-138.2057
22.400000	70.469	-138.7435
22.700001	70.480	-139.1728
23.000000	70.485	-139.6068
23.299999	70.485	-140.0206
23.600000	70.484	-140.4021
24.000000	70.487	-140.8695
24.299999	70.496	-141.2221
24.700001	70.515	-141.7460
25.000000	70.529	-142.1949
25.400000	70.539	-142.8437
25.799999	70.539	-143.4836
26.200001	70.535	-144.0675
26.500000	70.534	-144.4772
26.900000	70.537	-145.0230
27.200001	70.539	-145.4477
27.600000	70.533	-146.0114
28.000000	70.517	-146.4974
28.500000	70.500	-146.9180
29.000000	70.509	-147.2272
29.500000	70.539	-147.6248
30.000000	70.556	-148.1523
30.400000	70.547	-148.5353
30.700001	70.532	-148.7246
31.100000	70.521	-148.8360
31.500000	70.530	-148.8759
32.000000	70.566	-149.0189
32.500000	70.599	-149.3384
33.000000	70.607	-149.6866
33.500000	70.603	-149.9042
34.000000	70.613	-150.0101
34.500000	70.641	-150.1494
35.000000	70.672	-150.3946
35.500000	70.693	-150.6893
36.000000	70.706	-150.9471
36.500000	70.719	-151.1468
37.000000	70.737	-151.3182
37.500000	70.760	-151.4859
38.200001	70.795	-151.7281
38.700001	70.821	-151.9120
39.500000	70.852	-152.1816
40.000000	70.870	-152.2772
40.599998	70.901	-152.3107
41.200001	70.951	-152.3473
41.799999	71.013	-152.4741
42.500000	71.086	-152.7372
43.099998	71.147	-153.0256
43.700001	71.208	-153.3862
44.400002	71.272	-153.9194
45.000000	71.313	-154.4351
45.500000	71.338	-154.8624
46.200001	71.364	-155.4292
46.799999	71.384	-155.8954
47.500000	71.404	-156.4401
48.200001	71.416	-156.9868
48.700001	71.418	-157.3610
49.400002	71.414	-157.8278
50.000000	71.407	-158.1606
50.799999	71.402	-158.5237
51.500000	71.403	-158.8036
52.200001	71.409	-159.0820
53.000000	71.415	-159.4012
53.799999	71.421	-159.6991
54.500000	71.429	-159.9585
55.200001	71.435	-160.2378
56.000000	71.434	-160.5416
57.000000	71.432	-160.8462
58.000000	71.433	-161.1392
59.000000	71.431	-161.4164
60.000000	71.432	-161.6623
60.799999	71.435	-161.8836
61.500000	71.437	-162.1006
62.200001	71.435	-162.3300
63.000000	71.428	-162.5982
64.000000	71.410	-162.9181
65.000000	71.384	-163.1901
66.000000	71.348	-163.3841
67.000000	71.308	-163.4594
68.000000	71.274	-163.4019
69.000000	71.256	-163.2622
70.000000	71.257	-163.1286
71.000000	71.271	-163.0682
72.000000	71.291	-163.0892
73.000000	71.311	-163.1893
74.000000	71.327	-163.3431
75.000000	71.338	-163.5022
76.199997	71.346	-163.6686
77.500000	71.354	-163.7867
78.800003	71.365	-163.8756
80.000000	71.377	-163.9414
81.199997	71.395	-164.0189
82.500000	71.415	-164.1387
83.800003	71.437	-164.2975
85.000000	71.455	-164.4757
86.199997	71.470	-164.6652
87.500000	71.484	-164.8598
88.500000	71.495	-165.0086
90.000000	71.509	-165.2274
91.199997	71.520	-165.3962
92.500000	71.528	-165.5609
93.800003	71.535	-165.6910
95.000000	71.541	-165.7986
96.199997	71.546	-165.9135
97.500000	71.547	-166.0464
98.800003	71.545	-166.1909
100.000000	71.540	-166.3209
101.500000	71.535	-166.4408
103.000000	71.535	-166.5480
104.400002	71.535	-166.6578
106.000000	71.530	-166.7760
107.500000	71.522	-166.8743
109.000000	71.513	-166.9819
110.599998	71.500	-167.0988
112.000000	71.485	-167.1694
113.800003	71.464	-167.1851
115.000000	71.449	-167.1511
117.199997	71.420	-167.0464
118.000000	71.410	-166.9836
120.599998	71.414	-166.7207
122.000000	71.438	-166.7046
124.099998	71.463	-166.7523
125.000000	71.472	-166.7503
126.500000	71.488	-166.7356
128.000000	71.502	-166.7280
131.500000	71.523	-166.7919
132.000000	71.525	-166.8046
134.000000	71.526	-166.8227
136.000000	71.530	-166.7556
138.000000	71.545	-166.6899
140.000000	71.563	-166.6772
143.000000	71.592	-166.6908
145.000000	71.616	-166.6816
147.500000	71.642	-166.6368
150.000000	71.659	-166.5947
152.500000	71.673	-166.6211
155.000000	71.691	-166.6742
157.500000	71.714	-166.6788
160.000000	71.733	-166.6149
162.500000	71.752	-166.6024
165.000000	71.769	-166.6933
167.500000	71.791	-166.7793
170.000000	71.817	-166.8205
172.500000	71.842	-166.8368
175.000000	71.864	-166.8653
177.500000	71.882	-166.9153
180.000000	71.898	-166.9648
182.500000	71.915	-167.0208
185.000000	71.934	-167.0814
187.500000	71.948	-167.1505
190.000000	71.955	-167.2075
192.500000	71.966	-167.2752
195.000000	71.978	-167.3589
197.500000	71.989	-167.4379
200.000000	71.999	-167.5260
203.000000	72.005	-167.6364
206.000000	72.011	-167.7081
209.000000	72.013	-167.7644
212.000000	72.004	-167.8117
214.000000	71.996	-167.8362
218.000000	71.985	-167.8728
220.000000	71.981	-167.8639
224.000000	71.978	-167.7875
227.000000	71.976	-167.7091
230.000000	71.975	-167.6198
233.000000	71.976	-167.5167
236.000000	71.980	-167.4059
240.000000	71.993	-167.2537
243.000000	72.004	-167.1204
247.000000	72.018	-166.8937
250.000000	72.033	-166.7259
254.000000	72.066	-166.5722
258.000000	72.109	-166.4678
262.000000	72.147	-166.3703
265.000000	72.172	-166.3216
269.000000	72.208	-166.2762
272.000000	72.238	-166.2554
276.000000	72.274	-166.2715
280.000000	72.304	-166.3307
285.000000	72.334	-166.3751
290.000000	72.363	-166.3873
295.000000	72.394	-166.4289
300.000000	72.421	-166.5013
304.000000	72.439	-166.5668
307.000000	72.453	-166.6037
311.000000	72.469	-166.6446
315.000000	72.482	-166.6782
320.000000	72.495	-166.6985
325.000000	72.505	-166.7079
330.000000	72.511	-166.6709
335.000000	72.515	-166.5838
340.000000	72.528	-166.5076
345.000000	72.543	-166.4693
350.000000	72.556	-166.3923
355.000000	72.567	-166.2337
360.000000	72.580	-166.0566
365.000000	72.598	-165.8674
370.000000	72.625	-165.6529
375.000000	72.662	-165.4597
382.000000	72.718	-165.2166
387.000000	72.762	-165.0674
395.000000	72.848	-164.8987
400.000000	72.909	-164.8842
406.000000	72.973	-164.9841
412.000000	73.017	-165.1410
418.000000	73.045	-165.2032
425.000000	73.079	-165.1376
431.000000	73.123	-165.0487
437.000000	73.179	-165.0202
444.000000	73.246	-165.1350
450.000000	73.287	-165.2760
455.000000	73.318	-165.3443
462.000000	73.365	-165.4723
468.000000	73.387	-165.6147
475.000000	73.403	-165.6239
482.000000	73.440	-165.5585
487.000000	73.473	-165.5559
494.000000	73.514	-165.6040
500.000000	73.544	-165.6344
508.000000	73.596	-165.6392
515.000000	73.649	-165.6944
522.000000	73.692	-165.7672
530.000000	73.737	-165.8096
538.000000	73.791	-165.8909
545.000000	73.836	-166.0482
552.000000	73.865	-166.2376
560.000000	73.878	-166.3306
570.000000	73.903	-166.2176
580.000000	73.958	-166.0932
590.000000	74.006	-166.0552
600.000000	74.065	-165.9308
608.000000	74.123	-165.8706
615.000000	74.171	-165.8168
622.000000	74.219	-165.7247
630.000000	74.282	-165.5884
640.000000	74.375	-165.4179
650.000000	74.485	-165.2254
660.000000	74.620	-164.9967
670.000000	74.798	-164.9331
680.000000	74.983	-165.2258
690.000000	75.158	-165.7518
700.000000	75.314	-166.4908
710.000000	75.442	-167.3371
720.000000	75.549	-168.2093
730.000000	75.639	-169.0978
740.000000	75.717	-169.9886
750.000000	75.781	-170.8703
762.000000	75.843	-171.9087
775.000000	75.886	-172.9831
788.000000	75.926	-173.9501
800.000000	75.964	-174.8331
812.000000	76.011	-175.7398
825.000000	76.049	-176.8143
838.000000	76.067	-177.8972
850.000000	76.063	-178.8186
862.000000	76.070	-179.5909
875.000000	76.107	179.4656
885.000000	76.133	178.5747
900.000000	76.139	177.0018
912.000000	76.090	175.7039
925.000000	76.004	174.5541
938.000000	75.922	173.6166
950.000000	75.859	172.8381
962.000000	75.809	172.0342
975.000000	75.756	170.9948
988.000000	75.664	169.7192
1000.000000	75.518	168.6886
1015.000000	75.312	167.7198
1030.000000	75.074	167.0315
1044.000000	74.828	166.8548
1060.000000	74.555	167.4451
1075.000000	74.420	168.7818
1090.000000	74.472	169.9090
1106.000000	74.616	170.1596
1120.000000	74.705	169.7200
1138.000000	74.797	168.8741
1150.000000	74.837	167.9333
1172.000000	74.777	165.8527
1180.000000	74.708	165.1814
1206.000000	74.439	163.9514
1220.000000	74.334	163.6974
1241.000000	74.250	162.8261
1250.000000	74.192	162.2287
1265.000000	74.036	161.2013
1280.000000	73.799	160.5217
1315.000000	73.326	161.0294
1320.000000	73.284	161.1259
1340.000000	73.133	161.3898
1360.000000	73.015	161.7486
1380.000000	72.944	161.6368
1400.000000	72.816	161.1495
1430.000000	72.512	160.3766
1450.000000	72.210	160.5161
1475.000000	71.918	161.4833
1500.000000	71.662	162.3469
1525.000000	71.392	163.8773
1550.000000	71.315	166.0377
1575.000000	71.377	166.9808
1600.000000	71.346	167.0381
1625.000000	71.177	167.4123
1650.000000	71.080	168.4075
1675.000000	71.007	168.8452
1700.000000	70.870	169.2873
1725.000000	70.685	170.0623
1750.000000	70.526	171.3724
1775.000000	70.419	173.0002
1800.000000	70.423	174.6116
1825.000000	70.466	175.5647
1850.000000	70.445	176.3422
1875.000000	70.467	177.2253
1900.000000	70.468	177.2776
1925.000000	70.291	177.4080
1950.000000	70.049	178.7552
1975.000000	69.906	-179.0133
2000.000000	69.907	-176.6698
2030.000000	70.011	-174.4575
2060.000000	70.087	-172.7886
2090.000000	70.151	-170.5783
2120.000000	70.407	-168.3532
2140.000000	70.608	-167.8142
2180.000000	70.663	-167.0672
2200.000000	70.681	-165.6190
2240.000000	71.003	-162.8555
2270.000000	71.267	-161.8714
2300.000000	71.455	-160.9230
2330.000000	71.675	-159.5261
2360.000000	71.985	-158.3259
2400.000000	72.370	-157.5164
2430.000000	72.601	-156.7973
2470.000000	72.990	-155.1105
2500.000000	73.454	-153.8279
2540.000000	74.192	-153.5439
2580.000000	74.930	-154.8383
2620.000000	75.502	-157.9433
2650.000000	75.723	-160.4613
2690.000000	75.930	-162.7610
2720.000000	76.145	-164.2441
2760.000000	76.412	-166.8773
2800.000000	76.562	-169.6587
2850.000000	76.671	-172.7265
2900.000000	76.761	-175.4177
2950.000000	76.860	-178.3820
3000.000000	76.852	178.4713
3040.000000	76.783	176.2687
3070.000000	76.727	174.8402
3110.000000	76.686	173.0187
3150.000000	76.651	170.7095
3200.000000	76.412	167.6915
3250.000000	76.118	166.1805
3300.000000	75.959	164.6700
3350.000000	75.738	162.7174
3400.000000	75.431	161.4331
3450.000000	75.204	160.7224
3500.000000	75.035	159.4581
3550.000000	74.766	157.9241
3600.000000	74.418	157.0237
3650.000000	74.113	156.6342
3700.000000	73.845	156.0215
3750.000000	73.512	155.4097
3820.000000	73.014	155.1321
3870.000000	72.624	155.0535
3950.000000	71.882	155.8920
4000.000000	71.362	157.4616
4060.000000	70.763	160.9859
4120.000000	70.397	166.3123
4180.000000	70.465	172.0380
4250.000000	70.972	176.7667
4310.000000	71.460	178.4131
4370.000000	71.818	178.7196
4440.000000	72.066	178.3319
4500.000000	72.123	178.2362
4550.000000	72.152	178.5331
4620.000000	72.170	179.2943
4680.000000	72.203	-179.5605
4750.000000	72.330	-177.8580
4820.000000	72.531	-176.3192
4870.000000	72.696	-175.1226
4940.000000	73.055	-173.3018
5000.000000	73.487	-172.3385
5080.000000	74.056	-172.3660
5150.000000	74.510	-172.8410
5220.000000	74.978	-173.6378
5300.000000	75.542	-175.1239
5380.000000	76.090	-177.6191
5450.000000	76.516	179.5376
5520.000000	76.904	176.0052
5600.000000	77.202	170.8604
5700.000000	77.224	163.9265
5800.000000	76.928	157.9192
5900.000000	76.459	153.4452
6000.000000	75.956	150.4753
6080.000000	75.591	148.6794
6150.000000	75.268	147.4591
6220.000000	74.973	146.7311
6300.000000	74.719	146.0581
6400.000000	74.464	145.1003
6500.000000	74.266	143.8528
6600.000000	74.036	142.1245
6700.000000	73.743	140.3494
6800.000000	73.379	138.5524
6900.000000	72.907	137.1586
7000.000000	72.373	136.9030
7100.000000	71.924	137.6512
7200.000000	71.613	138.6950
7300.000000	71.406	139.4255
7400.000000	71.213	139.7513
7500.000000	70.980	140.0641
7620.000000	70.672	141.1603
7750.000000	70.519	143.5648
7880.000000	70.790	145.5714
8000.000000	71.264	144.5984
8120.000000	71.500	140.3632
8250.000000	71.202	134.8759
8380.000000	70.492	131.0284
8500.000000	69.598	129.6776
8620.000000	68.634	131.0828
8750.000000	67.703	136.2505
8850.000000	67.449	142.9042
9000.000000	68.369	151.7060
9120.000000	69.605	153.2406
9250.000000	70.672	149.2421
9380.000000	71.246	142.2495
9500.000000	71.409	135.0690
9620.000000	71.303	127.8521
9750.000000	70.932	120.2213
9880.000000	70.319	113.0984
10000.000000	69.569	107.2504
10150.000000	68.446	101.3332
10300.000000	67.300	97.0861
10440.000000	66.475	92.8215
10600.000000	65.751	83.2832
10750.000000	64.726	67.3306
10900.000000	62.924	43.9658
11060.000000	60.200	7.9242
11200.000000	58.105	-34.6996
11380.000000	58.310	-94.3871
11500.000000	59.122	-129.3330
11720.000000	58.054	-165.3707
11800.000000	57.125	-163.0301
12060.000000	59.830	-135.7346
12200.000000	62.068	-139.5461
12410.000000	63.671	-158.7380
12500.000000	63.857	-167.9641
12650.000000	63.580	175.2830
12800.000000	62.461	152.2603
13150.000000	57.864	2.7858
13200.000000	58.151	-26.0822
13400.000000	61.026	-105.3729
13600.000000	62.923	-136.6904
13800.000000	63.592	-154.0311
14000.000000	63.235	-168.1665
14300.000000	61.052	177.3693
14500.000000	58.653	175.2916
14750.000000	55.329	-159.4821
15000.000000	58.343	-108.1437
15250.000000	62.097	-104.2322
15500.000000	62.805	-123.7310
15750.000000	61.600	-130.5637
16000.000000	60.902	-120.0270
16250.000000	62.668	-107.9102
16500.000000	65.237	-104.6671
16750.000000	67.544	-110.2438
17000.000000	68.948	-122.6801
17250.000000	69.533	-136.3896
17500.000000	69.658	-150.1853
17750.000000	69.171	-164.6642
18000.000000	67.887	-177.4202
18250.000000	65.842	175.0095
18500.000000	63.262	175.5266
18750.000000	60.652	-173.4243
19000.000000	59.661	-154.2317
19250.000000	61.336	-138.5237
19500.000000	63.325	-136.3047
19750.000000	64.229	-143.2880
