* Measurement data measured by REW V5.20.13
* Source: Headset (KM-HIFI-384KHZ), MICROPHONE (Master Volume), R, volume: 0.250
* Format: 256k Log Swept Sine, 1 sweep at -13.0 dBFS with no timing reference
* Dated: Aug 7, 2023 12:23:33 AM
* REW Settings:
*  C-weighting compensation: Off
*  Target level: 75.0 dB
* Note: 
* Measurement: Aug 7
* Smoothing: 1/24 octave
* Frequency Step: 1/48 octave
* Start Frequency: 20.000 Hz
*
* Freq(Hz)	SPL(dB)	Phase(degrees)
20.000000	70.136	-136.3967
20.299999	70.048	-137.2784
20.600000	69.950	-137.5975
20.900000	69.892	-137.3789
21.200001	69.917	-136.8540
21.400000	69.985	-136.5495
21.799999	70.209	-136.3895
22.000000	70.336	-136.6548
22.400000	70.550	-137.9020
22.700001	70.634	-139.2344
23.000000	70.635	-140.5834
23.299999	70.570	-141.6727
23.600000	70.470	-142.3560
24.000000	70.344	-142.6165
24.299999	70.296	-142.5182
24.700001	70.311	-142.3919
25.000000	70.359	-142.5366
25.400000	70.424	-143.1441
25.799999	70.447	-144.0371
26.200001	70.420	-144.8936
26.500000	70.385	-145.3798
26.900000	70.349	-145.8142
27.200001	70.344	-146.0735
27.600000	70.366	-146.4920
28.000000	70.399	-147.1075
28.500000	70.418	-148.1060
29.000000	70.389	-149.1173
29.500000	70.324	-149.9324
30.000000	70.245	-150.4727
30.400000	70.182	-150.7129
30.700001	70.139	-150.7910
31.100000	70.094	-150.7833
31.500000	70.068	-150.6905
32.000000	70.063	-150.5465
32.500000	70.085	-150.4667
33.000000	70.123	-150.5058
33.500000	70.168	-150.6728
34.000000	70.209	-150.9467
34.500000	70.241	-151.2680
35.000000	70.264	-151.5568
35.500000	70.288	-151.7572
36.000000	70.321	-151.8808
36.500000	70.366	-151.9746
37.000000	70.414	-152.0626
37.500000	70.460	-152.1210
38.200001	70.519	-152.0695
38.700001	70.565	-151.9067
39.500000	70.669	-151.5240
40.000000	70.756	-151.3580
40.599998	70.866	-151.3876
41.200001	70.954	-151.6779
41.799999	71.006	-152.0989
42.500000	71.031	-152.5895
43.099998	71.040	-152.9683
43.700001	71.049	-153.3187
44.400002	71.073	-153.7399
45.000000	71.108	-154.1975
45.500000	71.137	-154.6821
46.200001	71.159	-155.4320
46.799999	71.163	-155.9997
47.500000	71.167	-156.5090
48.200001	71.182	-156.9416
48.700001	71.193	-157.2397
49.400002	71.201	-157.6128
50.000000	71.204	-157.8605
50.799999	71.210	-158.0958
51.500000	71.226	-158.2671
52.200001	71.250	-158.5037
53.000000	71.267	-158.9058
53.799999	71.256	-159.2785
54.500000	71.243	-159.4563
55.200001	71.245	-159.5585
56.000000	71.266	-159.7023
57.000000	71.303	-160.0951
58.000000	71.289	-160.7131
59.000000	71.221	-160.9436
60.000000	71.208	-160.8536
60.799999	71.229	-161.0027
61.500000	71.235	-161.2589
62.200001	71.231	-161.5018
63.000000	71.223	-161.7300
64.000000	71.217	-161.9209
65.000000	71.228	-161.9985
66.000000	71.261	-162.0888
67.000000	71.298	-162.2610
68.000000	71.329	-162.4682
69.000000	71.356	-162.6974
70.000000	71.374	-162.9649
71.000000	71.381	-163.2357
72.000000	71.380	-163.4645
73.000000	71.380	-163.6488
74.000000	71.382	-163.8006
75.000000	71.389	-163.9349
76.199997	71.401	-164.1175
77.500000	71.407	-164.3425
78.800003	71.408	-164.5437
80.000000	71.407	-164.7277
81.199997	71.405	-164.9184
82.500000	71.404	-165.1165
83.800003	71.408	-165.3317
85.000000	71.412	-165.5413
86.199997	71.418	-165.7319
87.500000	71.426	-165.9300
88.500000	71.431	-166.0815
90.000000	71.433	-166.3040
91.199997	71.428	-166.4642
92.500000	71.419	-166.6040
93.800003	71.410	-166.7227
95.000000	71.402	-166.8289
96.199997	71.395	-166.9151
97.500000	71.392	-166.9893
98.800003	71.393	-167.0567
100.000000	71.396	-167.1101
101.500000	71.403	-167.1553
103.000000	71.416	-167.2391
104.400002	71.416	-167.3585
106.000000	71.411	-167.4137
107.500000	71.416	-167.4642
109.000000	71.425	-167.5533
110.599998	71.433	-167.6583
112.000000	71.440	-167.7382
113.800003	71.445	-167.8243
115.000000	71.446	-167.8645
117.199997	71.450	-167.9386
118.000000	71.451	-167.9738
120.599998	71.466	-168.0858
122.000000	71.476	-168.2110
124.099998	71.474	-168.3796
125.000000	71.471	-168.4271
126.500000	71.466	-168.4892
128.000000	71.462	-168.5269
131.500000	71.467	-168.5431
132.000000	71.468	-168.5501
134.000000	71.469	-168.5824
136.000000	71.471	-168.6358
138.000000	71.474	-168.7168
140.000000	71.483	-168.7831
143.000000	71.500	-168.8705
145.000000	71.509	-168.9259
147.500000	71.521	-168.9772
150.000000	71.537	-169.0354
152.500000	71.547	-169.1218
155.000000	71.556	-169.2225
157.500000	71.560	-169.3450
160.000000	71.565	-169.4215
162.500000	71.572	-169.5179
165.000000	71.578	-169.6301
167.500000	71.581	-169.7458
170.000000	71.576	-169.8647
172.500000	71.569	-169.9775
175.000000	71.568	-170.0582
177.500000	71.567	-170.1113
180.000000	71.557	-170.1236
182.500000	71.546	-170.1425
185.000000	71.535	-170.1689
187.500000	71.526	-170.1709
190.000000	71.517	-170.1626
192.500000	71.508	-170.1433
195.000000	71.498	-170.0975
197.500000	71.488	-170.0358
200.000000	71.479	-169.9785
203.000000	71.471	-169.8761
206.000000	71.466	-169.7217
209.000000	71.462	-169.5744
212.000000	71.465	-169.4334
214.000000	71.473	-169.3416
218.000000	71.493	-169.1340
220.000000	71.504	-169.0291
224.000000	71.533	-168.8722
227.000000	71.557	-168.7877
230.000000	71.582	-168.7272
233.000000	71.606	-168.7195
236.000000	71.624	-168.7524
240.000000	71.636	-168.7640
243.000000	71.649	-168.7251
247.000000	71.675	-168.6704
250.000000	71.694	-168.6575
254.000000	71.719	-168.6702
258.000000	71.741	-168.7115
262.000000	71.756	-168.7553
265.000000	71.763	-168.7654
269.000000	71.767	-168.7574
272.000000	71.769	-168.7296
276.000000	71.774	-168.6684
280.000000	71.780	-168.6045
285.000000	71.791	-168.5205
290.000000	71.800	-168.3326
295.000000	71.822	-168.1725
300.000000	71.858	-168.0619
304.000000	71.890	-167.9998
307.000000	71.914	-167.9881
311.000000	71.941	-167.9997
315.000000	71.964	-168.0024
320.000000	71.987	-167.9822
325.000000	72.009	-167.9293
330.000000	72.039	-167.8781
335.000000	72.077	-167.8858
340.000000	72.116	-167.9568
345.000000	72.145	-168.1086
350.000000	72.157	-168.2662
355.000000	72.155	-168.3234
360.000000	72.162	-168.2810
365.000000	72.180	-168.2883
370.000000	72.195	-168.3548
375.000000	72.201	-168.4237
382.000000	72.198	-168.4223
387.000000	72.205	-168.4048
395.000000	72.228	-168.4394
400.000000	72.237	-168.5088
406.000000	72.234	-168.6281
412.000000	72.207	-168.7044
418.000000	72.168	-168.6330
425.000000	72.138	-168.3716
431.000000	72.128	-168.0811
437.000000	72.125	-167.7371
444.000000	72.135	-167.2946
450.000000	72.155	-166.9231
455.000000	72.181	-166.6656
462.000000	72.217	-166.4174
468.000000	72.237	-166.1833
475.000000	72.271	-165.8166
482.000000	72.313	-165.4488
487.000000	72.352	-165.1983
494.000000	72.417	-164.9670
500.000000	72.458	-164.8131
508.000000	72.503	-164.4629
515.000000	72.551	-164.0579
522.000000	72.612	-163.6381
530.000000	72.706	-163.1610
538.000000	72.824	-162.7318
545.000000	72.947	-162.4269
552.000000	73.090	-162.2648
560.000000	73.259	-162.3656
570.000000	73.439	-162.9203
580.000000	73.558	-163.5656
590.000000	73.652	-164.1072
600.000000	73.732	-164.5999
608.000000	73.792	-165.0200
615.000000	73.835	-165.4228
622.000000	73.863	-165.8229
630.000000	73.877	-166.1756
640.000000	73.892	-166.3902
650.000000	73.925	-166.4966
660.000000	73.969	-166.5433
670.000000	74.031	-166.5268
680.000000	74.123	-166.5937
690.000000	74.216	-166.8523
700.000000	74.300	-167.1510
710.000000	74.384	-167.5325
720.000000	74.451	-167.9664
730.000000	74.514	-168.3659
740.000000	74.570	-168.7941
750.000000	74.613	-169.1552
762.000000	74.691	-169.4636
775.000000	74.787	-170.1243
788.000000	74.836	-170.7156
800.000000	74.911	-171.1354
812.000000	74.979	-171.7640
825.000000	75.042	-172.3803
838.000000	75.122	-172.9892
850.000000	75.194	-173.6974
862.000000	75.244	-174.4250
875.000000	75.295	-175.1017
885.000000	75.355	-175.5940
900.000000	75.473	-176.6839
912.000000	75.539	-177.8999
925.000000	75.559	-179.2222
938.000000	75.578	179.5047
950.000000	75.562	178.0691
962.000000	75.483	176.8058
975.000000	75.397	175.7767
988.000000	75.315	174.6800
1000.000000	75.199	173.7313
1015.000000	75.032	172.9572
1030.000000	74.890	172.5509
1044.000000	74.801	172.3064
1060.000000	74.741	171.9138
1075.000000	74.703	171.2932
1090.000000	74.633	170.3767
1106.000000	74.497	169.5468
1120.000000	74.365	169.0912
1138.000000	74.230	168.7437
1150.000000	74.153	168.3241
1172.000000	73.931	167.4229
1180.000000	73.838	167.2204
1206.000000	73.558	167.0252
1220.000000	73.425	167.0728
1241.000000	73.216	167.5435
1250.000000	73.150	167.9526
1265.000000	73.110	168.5616
1280.000000	73.098	168.6221
1315.000000	72.876	168.1949
1320.000000	72.829	168.2408
1340.000000	72.666	168.8950
1360.000000	72.611	169.6844
1380.000000	72.594	169.9080
1400.000000	72.516	169.8650
1430.000000	72.396	170.3678
1450.000000	72.321	170.4945
1475.000000	72.200	170.9988
1500.000000	72.151	171.7644
1525.000000	72.159	171.9598
1550.000000	72.076	171.8937
1575.000000	71.971	172.1826
1600.000000	71.885	172.4442
1625.000000	71.736	172.7416
1650.000000	71.589	174.0121
1675.000000	71.629	175.3870
1700.000000	71.691	175.7592
1725.000000	71.698	176.2278
1750.000000	71.791	176.2260
1775.000000	71.726	175.4396
1800.000000	71.548	175.5066
1825.000000	71.394	176.1548
1850.000000	71.297	177.2170
1875.000000	71.286	178.1736
1900.000000	71.299	178.5580
1925.000000	71.209	178.7043
1950.000000	71.082	179.4937
1975.000000	70.974	-179.5700
2000.000000	70.844	-178.1495
2030.000000	70.793	-175.7885
2060.000000	70.928	-173.4767
2090.000000	71.096	-172.3704
2120.000000	71.171	-171.0390
2140.000000	71.299	-170.0154
2180.000000	71.532	-169.3786
2200.000000	71.550	-168.9189
2240.000000	71.709	-167.0964
2270.000000	71.880	-166.2459
2300.000000	72.013	-165.3021
2330.000000	72.196	-164.1246
2360.000000	72.441	-163.0530
2400.000000	72.829	-162.1755
2430.000000	73.129	-161.9046
2470.000000	73.486	-162.3319
2500.000000	73.655	-162.6867
2540.000000	73.886	-162.3640
2580.000000	74.261	-161.9829
2620.000000	74.686	-162.4706
2650.000000	74.980	-163.2374
2690.000000	75.334	-164.6615
2720.000000	75.558	-165.8152
2760.000000	75.869	-167.3698
2800.000000	76.180	-169.5052
2850.000000	76.422	-172.9127
2900.000000	76.495	-175.8985
2950.000000	76.584	-178.4298
3000.000000	76.653	178.5931
3040.000000	76.615	176.0636
3070.000000	76.529	174.3849
3110.000000	76.384	172.6343
3150.000000	76.267	171.2373
3200.000000	76.147	169.3498
3250.000000	75.945	167.5502
3300.000000	75.740	166.3767
3350.000000	75.595	165.3728
3400.000000	75.469	163.9572
3450.000000	75.256	162.4104
3500.000000	74.994	161.2974
3550.000000	74.718	160.3387
3600.000000	74.366	159.7263
3650.000000	73.995	160.1389
3700.000000	73.739	161.2240
3750.000000	73.593	162.1199
3820.000000	73.394	163.0947
3870.000000	73.281	164.0227
3950.000000	73.183	165.2030
4000.000000	73.100	165.8262
4060.000000	72.987	166.9352
4120.000000	72.930	168.4361
4180.000000	72.928	170.1019
4250.000000	73.042	172.5391
4310.000000	73.359	174.4211
4370.000000	73.783	174.9625
4440.000000	74.203	174.0963
4500.000000	74.467	172.6573
4550.000000	74.594	171.1517
4620.000000	74.624	169.3235
4680.000000	74.608	168.3963
4750.000000	74.616	167.5904
4820.000000	74.625	167.0116
4870.000000	74.659	166.6963
4940.000000	74.717	166.0463
5000.000000	74.732	165.5239
5080.000000	74.754	165.3970
5150.000000	74.864	165.8217
5220.000000	75.122	166.2225
5300.000000	75.584	166.0133
5380.000000	76.172	164.4430
5450.000000	76.694	161.5745
5520.000000	77.132	157.2949
5600.000000	77.437	150.9795
5700.000000	77.410	141.8844
5800.000000	76.882	133.3012
5900.000000	76.019	126.7354
6000.000000	74.991	122.2693
6080.000000	74.127	120.1997
6150.000000	73.382	119.2442
6220.000000	72.653	119.1817
6300.000000	71.917	120.0163
6400.000000	71.157	121.6605
6500.000000	70.574	123.6703
6600.000000	70.119	125.4870
6700.000000	69.741	127.1724
6800.000000	69.391	128.6198
6900.000000	69.054	130.4268
7000.000000	68.819	132.4669
7100.000000	68.669	134.3194
7200.000000	68.600	135.9696
7300.000000	68.609	137.2527
7400.000000	68.687	137.9467
7500.000000	68.762	137.8628
7620.000000	68.796	137.2917
7750.000000	68.864	136.5453
7880.000000	69.076	134.8741
8000.000000	69.408	131.4627
8120.000000	69.790	124.1722
8250.000000	69.752	109.1181
8380.000000	68.498	86.9741
8500.000000	65.821	60.7215
8620.000000	61.649	19.4840
8750.000000	58.559	-49.4436
8850.000000	61.240	-96.1006
9000.000000	66.208	-133.2650
9120.000000	68.923	-152.9918
9250.000000	70.417	-174.9877
9380.000000	70.564	165.2737
9500.000000	69.953	152.1539
9620.000000	69.078	143.4965
9750.000000	68.123	137.2791
9880.000000	67.290	132.7320
10000.000000	66.670	128.7688
10150.000000	66.080	122.4572
10300.000000	65.604	112.3036
10440.000000	65.065	96.7808
10600.000000	64.161	69.4285
10750.000000	63.343	33.5297
10900.000000	63.322	-7.7475
11060.000000	64.547	-47.3461
11200.000000	66.131	-73.6168
11380.000000	68.250	-98.4892
11500.000000	69.453	-113.5093
11720.000000	70.112	-141.1646
11800.000000	69.798	-148.4473
12060.000000	69.075	-156.7499
12200.000000	69.722	-159.7744
12410.000000	70.954	-171.1940
12500.000000	71.342	-178.4651
12650.000000	71.696	166.5759
12800.000000	71.579	147.6742
13150.000000	68.162	84.4938
13200.000000	67.180	72.4413
13400.000000	61.870	8.0824
13600.000000	55.783	-73.5568
13800.000000	54.519	-124.6096
14000.000000	54.822	-138.3457
14300.000000	56.385	-113.2673
14500.000000	60.985	-91.1248
14750.000000	65.791	-93.1710
15000.000000	67.845	-117.8936
15250.000000	67.192	-139.2765
15500.000000	65.580	-144.0720
15750.000000	65.000	-141.0063
16000.000000	65.239	-139.3990
16250.000000	65.439	-138.3467
16500.000000	66.101	-134.4885
16750.000000	67.875	-132.2040
17000.000000	69.841	-139.1312
17250.000000	70.741	-155.7496
17500.000000	70.180	-173.8378
17750.000000	68.484	173.9867
18000.000000	66.119	171.0057
18250.000000	63.870	176.8890
18500.000000	62.639	-174.0015
18750.000000	62.357	-164.7271
19000.000000	63.002	-156.0875
19250.000000	64.419	-151.6100
19500.000000	65.767	-154.5833
19750.000000	66.411	-162.4119
