* Measurement data measured by REW V5.20.13
* Source: Headset (KM-HIFI-384KHZ), MICROPHONE (Master Volume), L, volume: 0.250
* Format: 256k Log Swept Sine, 1 sweep at -13.0 dBFS with no timing reference
* Dated: Jul 19, 2023 3:43:07 AM
* REW Settings:
*  C-weighting compensation: Off
*  Target level: 75.0 dB
* Note: ; 
* Measurement: Borealis L
* Smoothing: 1/24 octave
* Frequency Step: 1/48 octave
* Start Frequency: 20.000 Hz
*
* Freq(Hz)	SPL(dB)	Phase(degrees)
20.000000	84.193	89.9647
20.299999	84.322	89.3144
20.600000	84.444	88.6744
20.900000	84.561	88.0589
21.200001	84.675	87.4719
21.400000	84.752	87.0911
21.799999	84.905	86.3390
22.000000	84.981	85.9603
22.400000	85.132	85.1884
22.700001	85.241	84.6010
23.000000	85.346	84.0165
23.299999	85.449	83.4432
23.600000	85.549	82.8835
24.000000	85.680	82.1559
24.299999	85.777	81.6187
24.700001	85.905	80.9099
25.000000	85.998	80.3859
25.400000	86.121	79.7023
25.799999	86.241	79.0359
26.200001	86.361	78.3756
26.500000	86.450	77.8766
26.900000	86.565	77.2049
27.200001	86.647	76.7043
27.600000	86.752	76.0578
28.000000	86.855	75.4469
28.500000	86.986	74.7154
29.000000	87.122	73.9633
29.500000	87.254	73.1536
30.000000	87.374	72.3113
30.400000	87.461	71.6545
30.700001	87.523	71.1856
31.100000	87.604	70.5909
31.500000	87.686	70.0161
32.000000	87.789	69.3013
32.500000	87.889	68.5866
33.000000	87.986	67.8860
33.500000	88.082	67.2042
34.000000	88.178	66.5246
34.500000	88.272	65.8322
35.000000	88.361	65.1353
35.500000	88.446	64.4588
36.000000	88.530	63.8133
36.500000	88.616	63.1794
37.000000	88.704	62.5233
37.500000	88.788	61.8342
38.200001	88.891	60.8695
38.700001	88.958	60.2281
39.500000	89.069	59.2614
40.000000	89.141	58.6350
40.599998	89.219	57.8477
41.200001	89.284	57.0818
41.799999	89.344	56.3815
42.500000	89.417	55.6144
43.099998	89.481	54.9516
43.700001	89.542	54.2858
44.400002	89.609	53.5312
45.000000	89.667	52.9013
45.500000	89.716	52.3761
46.200001	89.784	51.6328
46.799999	89.840	50.9946
47.500000	89.901	50.2712
48.200001	89.963	49.5781
48.700001	90.009	49.0802
49.400002	90.072	48.3427
50.000000	90.117	47.6900
50.799999	90.162	46.8752
51.500000	90.199	46.2295
52.200001	90.236	45.5955
53.000000	90.273	44.8760
53.799999	90.306	44.1936
54.500000	90.335	43.6046
55.200001	90.361	43.0045
56.000000	90.382	42.3397
57.000000	90.405	41.6011
58.000000	90.438	40.9590
59.000000	90.485	40.3104
60.000000	90.531	39.5967
60.799999	90.562	39.0335
61.500000	90.589	38.5605
62.200001	90.618	38.0849
63.000000	90.650	37.5182
64.000000	90.683	36.7864
65.000000	90.711	36.0698
66.000000	90.738	35.3644
67.000000	90.762	34.6447
68.000000	90.779	33.9399
69.000000	90.791	33.2720
70.000000	90.799	32.6396
71.000000	90.802	32.0434
72.000000	90.800	31.4827
73.000000	90.795	30.9568
74.000000	90.789	30.4489
75.000000	90.778	29.9586
76.199997	90.762	29.4184
77.500000	90.748	28.8872
78.800003	90.741	28.3901
80.000000	90.737	27.9200
81.199997	90.729	27.4561
82.500000	90.715	27.0112
83.800003	90.705	26.6371
85.000000	90.702	26.3221
86.199997	90.703	26.0100
87.500000	90.707	25.6551
88.500000	90.710	25.3697
90.000000	90.710	24.9276
91.199997	90.707	24.5757
92.500000	90.704	24.1954
93.800003	90.699	23.8192
95.000000	90.692	23.4993
96.199997	90.685	23.2007
97.500000	90.677	22.9030
98.800003	90.668	22.6313
100.000000	90.659	22.3862
101.500000	90.645	22.0925
103.000000	90.632	21.8167
104.400002	90.621	21.5717
106.000000	90.613	21.3012
107.500000	90.606	21.0496
109.000000	90.600	20.7947
110.599998	90.593	20.5139
112.000000	90.587	20.2614
113.800003	90.578	19.9414
115.000000	90.570	19.7456
117.199997	90.553	19.4554
118.000000	90.546	19.3668
120.599998	90.518	19.1191
122.000000	90.500	19.0276
124.099998	90.482	18.9223
125.000000	90.478	18.8804
126.500000	90.475	18.8086
128.000000	90.473	18.7422
131.500000	90.476	18.6439
132.000000	90.478	18.6299
134.000000	90.489	18.5385
136.000000	90.502	18.3962
138.000000	90.516	18.2345
140.000000	90.526	18.0713
143.000000	90.527	17.8566
145.000000	90.520	17.7071
147.500000	90.507	17.5522
150.000000	90.499	17.4777
152.500000	90.507	17.4895
155.000000	90.539	17.4261
157.500000	90.576	17.1958
160.000000	90.601	16.8560
162.500000	90.610	16.4647
165.000000	90.600	16.0331
167.500000	90.571	15.6366
170.000000	90.531	15.3618
172.500000	90.487	15.2276
175.000000	90.444	15.1666
177.500000	90.407	15.1385
180.000000	90.376	15.1255
182.500000	90.347	15.1288
185.000000	90.318	15.1562
187.500000	90.290	15.2073
190.000000	90.265	15.2811
192.500000	90.243	15.3696
195.000000	90.225	15.4643
197.500000	90.209	15.5641
200.000000	90.196	15.6736
203.000000	90.180	15.8214
206.000000	90.167	15.9774
209.000000	90.157	16.1248
212.000000	90.149	16.2659
214.000000	90.142	16.3740
218.000000	90.136	16.6641
220.000000	90.141	16.8035
224.000000	90.156	16.9750
227.000000	90.167	17.0465
230.000000	90.174	17.1044
233.000000	90.175	17.1694
236.000000	90.172	17.2467
240.000000	90.169	17.3593
243.000000	90.164	17.4686
247.000000	90.159	17.6675
250.000000	90.158	17.8316
254.000000	90.158	18.0409
258.000000	90.163	18.2216
262.000000	90.168	18.4203
265.000000	90.170	18.5893
269.000000	90.173	18.8144
272.000000	90.176	18.9747
276.000000	90.185	19.1833
280.000000	90.197	19.3733
285.000000	90.212	19.5814
290.000000	90.226	19.7908
295.000000	90.235	20.0047
300.000000	90.240	20.2297
304.000000	90.241	20.4449
307.000000	90.244	20.6193
311.000000	90.252	20.8549
315.000000	90.265	21.0951
320.000000	90.285	21.3983
325.000000	90.304	21.6634
330.000000	90.318	21.9163
335.000000	90.332	22.2028
340.000000	90.355	22.4960
345.000000	90.380	22.7624
350.000000	90.404	23.0055
355.000000	90.425	23.2461
360.000000	90.441	23.4882
365.000000	90.451	23.7347
370.000000	90.458	24.0253
375.000000	90.466	24.3999
382.000000	90.497	25.0282
387.000000	90.541	25.4550
395.000000	90.628	25.9392
400.000000	90.675	26.1357
406.000000	90.721	26.3401
412.000000	90.759	26.5709
418.000000	90.790	26.8531
425.000000	90.829	27.2366
431.000000	90.871	27.5619
437.000000	90.916	27.8452
444.000000	90.964	28.1602
450.000000	91.003	28.4671
455.000000	91.038	28.7499
462.000000	91.095	29.1552
468.000000	91.152	29.4722
475.000000	91.218	29.7814
482.000000	91.284	30.0689
487.000000	91.333	30.2647
494.000000	91.399	30.4911
500.000000	91.449	30.6750
508.000000	91.515	30.9609
515.000000	91.576	31.2236
522.000000	91.641	31.4630
530.000000	91.716	31.6723
538.000000	91.785	31.8611
545.000000	91.842	32.0469
552.000000	91.900	32.2497
560.000000	91.970	32.4740
570.000000	92.056	32.7287
580.000000	92.141	33.0089
590.000000	92.237	33.2820
600.000000	92.336	33.4521
608.000000	92.404	33.5673
615.000000	92.460	33.6920
622.000000	92.518	33.8319
630.000000	92.587	33.9893
640.000000	92.674	34.1790
650.000000	92.766	34.3508
660.000000	92.859	34.4870
670.000000	92.949	34.5810
680.000000	93.031	34.6823
690.000000	93.110	34.8356
700.000000	93.199	35.0327
710.000000	93.302	35.1936
720.000000	93.409	35.2652
730.000000	93.514	35.2765
740.000000	93.617	35.2540
750.000000	93.719	35.2033
762.000000	93.843	35.0651
775.000000	93.967	34.7834
788.000000	94.065	34.4079
800.000000	94.130	34.1176
812.000000	94.184	33.9194
825.000000	94.232	33.8850
838.000000	94.305	34.0335
850.000000	94.391	34.1280
862.000000	94.492	34.2207
875.000000	94.625	34.2128
885.000000	94.728	34.0460
900.000000	94.862	33.6558
912.000000	94.955	33.3071
925.000000	95.049	32.9227
938.000000	95.136	32.5111
950.000000	95.205	32.1208
962.000000	95.265	31.7695
975.000000	95.333	31.4303
988.000000	95.398	31.0933
1000.000000	95.459	30.8574
1015.000000	95.565	30.5456
1030.000000	95.680	29.9718
1044.000000	95.772	29.2644
1060.000000	95.856	28.3183
1075.000000	95.904	27.2433
1090.000000	95.888	26.1167
1106.000000	95.800	25.2548
1120.000000	95.713	25.0322
1138.000000	95.672	25.1984
1150.000000	95.702	25.3013
1172.000000	95.800	24.9044
1180.000000	95.827	24.6181
1206.000000	95.862	23.4653
1220.000000	95.841	22.8573
1241.000000	95.797	22.1316
1250.000000	95.778	21.8232
1265.000000	95.734	21.3192
1280.000000	95.682	20.8545
1315.000000	95.488	19.8033
1320.000000	95.448	19.6962
1340.000000	95.268	19.6389
1360.000000	95.124	19.9816
1380.000000	94.995	20.4860
1400.000000	94.912	21.2732
1430.000000	94.851	22.1968
1450.000000	94.824	22.9254
1475.000000	94.864	23.6006
1500.000000	94.852	23.6661
1525.000000	94.773	24.0126
1550.000000	94.656	24.6797
1575.000000	94.561	26.0504
1600.000000	94.565	27.6604
1625.000000	94.646	29.0650
1650.000000	94.731	30.0946
1675.000000	94.800	31.2515
1700.000000	94.915	32.5716
1725.000000	95.095	33.7667
1750.000000	95.300	34.4978
1775.000000	95.475	35.0538
1800.000000	95.671	35.5982
1825.000000	95.882	35.8214
1850.000000	96.061	35.7501
1875.000000	96.194	35.6180
1900.000000	96.304	35.7397
1925.000000	96.456	35.9679
1950.000000	96.614	35.9243
1975.000000	96.740	35.7145
2000.000000	96.818	35.4406
2030.000000	96.863	35.5090
2060.000000	96.928	35.9831
2090.000000	97.024	36.6059
2120.000000	97.142	37.3532
2140.000000	97.233	37.8826
2180.000000	97.430	39.2772
2200.000000	97.579	40.2357
2240.000000	98.041	42.0659
2270.000000	98.516	42.7267
2300.000000	98.982	42.4011
2330.000000	99.379	41.5525
2360.000000	99.711	40.6303
2400.000000	100.167	39.6056
2430.000000	100.547	38.6665
2470.000000	101.092	36.6884
2500.000000	101.461	34.5083
2540.000000	101.838	30.9647
2580.000000	102.079	27.2621
2620.000000	102.202	23.6218
2650.000000	102.234	21.1740
2690.000000	102.254	18.2576
2720.000000	102.256	16.1766
2760.000000	102.240	13.5718
2800.000000	102.215	11.0504
2850.000000	102.147	7.8953
2900.000000	102.025	4.9426
2950.000000	101.881	2.3160
3000.000000	101.769	-0.2559
3040.000000	101.672	-2.7527
3070.000000	101.542	-4.8435
3110.000000	101.270	-7.5584
3150.000000	100.895	-9.8279
3200.000000	100.345	-11.6595
3250.000000	99.804	-12.5731
3300.000000	99.270	-13.1221
3350.000000	98.649	-12.9317
3400.000000	98.002	-11.0361
3450.000000	97.529	-7.7035
3500.000000	97.268	-3.9660
3550.000000	97.160	0.2179
3600.000000	97.334	4.9589
3650.000000	97.875	8.8143
3700.000000	98.572	10.4780
3750.000000	99.221	10.1937
3820.000000	99.951	7.6201
3870.000000	100.284	4.7124
3950.000000	100.482	-0.2065
4000.000000	100.458	-3.1287
4060.000000	100.266	-6.2085
4120.000000	99.953	-8.1713
4180.000000	99.641	-9.0154
4250.000000	99.357	-9.1934
4310.000000	99.181	-9.0066
4370.000000	99.068	-8.7090
4440.000000	98.982	-8.4639
4500.000000	98.916	-8.2747
4550.000000	98.864	-8.0296
4620.000000	98.814	-7.5082
4680.000000	98.797	-6.9117
4750.000000	98.819	-6.0053
4820.000000	98.910	-4.9113
4870.000000	99.029	-4.0767
4940.000000	99.280	-2.9374
5000.000000	99.581	-2.0884
5080.000000	100.119	-1.2908
5150.000000	100.742	-1.0873
5220.000000	101.535	-1.7272
5300.000000	102.634	-4.2866
5380.000000	103.829	-9.8658
5450.000000	104.766	-18.0965
5520.000000	105.350	-29.5891
5600.000000	105.326	-44.9438
5700.000000	104.222	-62.3600
5800.000000	102.364	-74.0227
5900.000000	100.331	-80.3345
6000.000000	98.464	-83.3913
6080.000000	97.149	-84.7344
6150.000000	96.105	-85.6583
6220.000000	95.118	-86.6187
6300.000000	93.995	-87.8783
6400.000000	92.501	-89.5721
6500.000000	90.820	-90.8737
6600.000000	88.919	-91.2626
6700.000000	86.776	-90.8296
6800.000000	84.256	-89.6391
6900.000000	81.001	-82.1199
7000.000000	77.405	-43.4529
7100.000000	79.202	23.5833
7200.000000	83.549	53.0709
7300.000000	86.377	50.4857
7400.000000	88.001	43.5577
7500.000000	89.016	39.7419
7620.000000	90.027	39.2550
7750.000000	91.349	41.3739
7880.000000	93.047	43.3614
8000.000000	94.891	43.6095
8120.000000	97.018	41.5284
8250.000000	99.511	34.5025
8380.000000	101.559	19.2642
8500.000000	102.338	-1.0973
8620.000000	101.869	-20.6556
8750.000000	100.522	-35.1245
8850.000000	99.419	-42.2142
9000.000000	98.109	-50.6921
9120.000000	97.265	-58.5342
9250.000000	96.170	-69.3502
9380.000000	94.476	-81.0580
9500.000000	92.153	-89.1649
9620.000000	89.084	-90.6082
9750.000000	85.109	-80.0034
9880.000000	81.321	-54.2853
10000.000000	80.487	-25.8383
10150.000000	82.826	-2.9285
10300.000000	85.238	3.1351
10440.000000	86.768	-0.4041
10600.000000	87.523	-10.1685
10750.000000	87.187	-20.7292
10900.000000	85.890	-28.2624
11060.000000	83.698	-28.9369
11200.000000	81.471	-20.7646
11380.000000	79.729	0.4535
11500.000000	80.282	15.3685
11720.000000	83.113	30.2575
11800.000000	84.006	30.5697
12060.000000	85.230	23.5312
12200.000000	85.074	22.3654
12410.000000	85.473	28.9192
12500.000000	86.266	31.9330
12650.000000	87.880	32.2324
12800.000000	89.129	25.7631
13150.000000	89.140	1.9172
13200.000000	88.836	-0.4588
13400.000000	87.300	-4.3997
13600.000000	86.114	-1.7921
13800.000000	85.847	1.0732
14000.000000	85.971	0.0257
14300.000000	85.736	-6.5692
14500.000000	85.488	-13.0331
14750.000000	85.184	-30.0560
15000.000000	83.990	-66.8260
15250.000000	81.004	-128.2358
15500.000000	77.102	167.2039
15750.000000	76.864	132.0427
16000.000000	79.723	119.5801
16250.000000	82.412	110.0636
16500.000000	84.347	100.4900
16750.000000	86.577	93.6379
17000.000000	89.030	81.5491
17250.000000	90.294	59.4515
17500.000000	89.995	36.2569
17750.000000	88.752	17.8541
18000.000000	86.852	3.9331
18250.000000	84.192	-2.8445
18500.000000	81.005	0.4047
18750.000000	77.946	14.5640
19000.000000	76.605	34.7365
19250.000000	77.602	50.2827
19500.000000	79.288	55.6163
19750.000000	80.500	51.4070
