* Measurement data measured by REW V5.20.13
* Source: Headset (KM-HIFI-384KHZ), MICROPHONE (Master Volume), R, volume: 0.250
* Format: 256k Log Swept Sine, 1 sweep at -13.0 dBFS with no timing reference
* Dated: Jul 19, 2023 3:10:51 AM
* REW Settings:
*  C-weighting compensation: Off
*  Target level: 75.0 dB
* Note: ; 
* Measurement: Borealis R
* Smoothing: 1/24 octave
* Frequency Step: 1/48 octave
* Start Frequency: 20.000 Hz
*
* Freq(Hz)	SPL(dB)	Phase(degrees)
20.000000	83.694	88.7042
20.299999	83.823	88.0951
20.600000	83.950	87.4470
20.900000	84.071	86.7665
21.200001	84.183	86.0759
21.400000	84.253	85.6249
21.799999	84.389	84.7600
22.000000	84.456	84.3480
22.400000	84.591	83.5520
22.700001	84.694	82.9589
23.000000	84.797	82.3546
23.299999	84.898	81.7413
23.600000	84.995	81.1319
24.000000	85.118	80.3504
24.299999	85.209	79.8002
24.700001	85.332	79.1074
25.000000	85.427	78.5972
25.400000	85.556	77.8979
25.799999	85.681	77.1619
26.200001	85.795	76.4130
26.500000	85.872	75.8730
26.900000	85.969	75.2146
27.200001	86.041	74.7726
27.600000	86.142	74.2308
28.000000	86.251	73.6903
28.500000	86.394	72.9407
29.000000	86.528	72.0900
29.500000	86.645	71.1976
30.000000	86.746	70.3456
30.400000	86.821	69.7158
30.700001	86.878	69.2672
31.100000	86.955	68.6828
31.500000	87.032	68.1010
32.000000	87.125	67.3776
32.500000	87.216	66.6731
33.000000	87.307	65.9895
33.500000	87.399	65.3035
34.000000	87.489	64.5893
34.500000	87.571	63.8516
35.000000	87.641	63.1274
35.500000	87.701	62.4649
36.000000	87.758	61.8896
36.500000	87.822	61.3857
37.000000	87.897	60.8941
37.500000	87.980	60.3443
38.200001	88.089	59.4171
38.700001	88.148	58.6997
39.500000	88.209	57.6963
40.000000	88.246	57.2125
40.599998	88.304	56.7072
41.200001	88.374	56.1803
41.799999	88.445	55.6050
42.500000	88.521	54.9238
43.099998	88.583	54.3691
43.700001	88.647	53.8324
44.400002	88.724	53.1958
45.000000	88.787	52.6317
45.500000	88.836	52.1638
46.200001	88.900	51.5383
46.799999	88.956	51.0277
47.500000	89.023	50.4348
48.200001	89.091	49.8323
48.700001	89.138	49.3918
49.400002	89.203	48.7445
50.000000	89.250	48.1664
50.799999	89.300	47.4330
51.500000	89.342	46.8584
52.200001	89.388	46.2898
53.000000	89.436	45.6090
53.799999	89.476	44.9567
54.500000	89.512	44.4267
55.200001	89.550	43.9067
56.000000	89.595	43.3169
57.000000	89.654	42.5821
58.000000	89.710	41.8379
59.000000	89.763	41.0882
60.000000	89.806	40.3419
60.799999	89.835	39.7765
61.500000	89.859	39.2859
62.200001	89.878	38.7924
63.000000	89.894	38.2682
64.000000	89.918	37.6685
65.000000	89.945	37.0165
66.000000	89.960	36.3471
67.000000	89.969	35.7593
68.000000	89.985	35.2094
69.000000	90.002	34.6367
70.000000	90.012	34.0697
71.000000	90.016	33.5433
72.000000	90.019	33.0547
73.000000	90.019	32.5914
74.000000	90.018	32.1578
75.000000	90.017	31.7487
76.199997	90.016	31.2754
77.500000	90.018	30.7665
78.800003	90.014	30.2633
80.000000	90.007	29.8940
81.199997	90.011	29.5922
82.500000	90.022	29.2660
83.800003	90.034	28.9264
85.000000	90.043	28.6060
86.199997	90.050	28.2866
87.500000	90.057	27.9449
88.500000	90.065	27.6809
90.000000	90.080	27.2631
91.199997	90.090	26.9001
92.500000	90.091	26.5382
93.800003	90.092	26.2411
95.000000	90.095	25.9744
96.199997	90.098	25.6935
97.500000	90.099	25.3992
98.800003	90.102	25.1176
100.000000	90.107	24.8574
101.500000	90.112	24.5364
103.000000	90.109	24.2249
104.400002	90.098	24.0164
106.000000	90.096	23.8371
107.500000	90.102	23.6205
109.000000	90.105	23.3790
110.599998	90.109	23.1556
112.000000	90.113	22.9572
113.800003	90.113	22.7357
115.000000	90.115	22.6079
117.199997	90.120	22.3457
118.000000	90.122	22.2507
120.599998	90.132	21.9697
122.000000	90.139	21.8259
124.099998	90.146	21.6302
125.000000	90.148	21.5551
126.500000	90.154	21.4399
128.000000	90.163	21.3182
131.500000	90.179	21.0411
132.000000	90.181	21.0082
134.000000	90.189	20.8987
136.000000	90.202	20.8109
138.000000	90.227	20.7185
140.000000	90.262	20.5739
143.000000	90.319	20.2675
145.000000	90.359	19.9839
147.500000	90.397	19.4919
150.000000	90.410	18.9072
152.500000	90.400	18.3575
155.000000	90.385	17.8907
157.500000	90.358	17.4913
160.000000	90.316	17.1810
162.500000	90.270	16.9415
165.000000	90.226	16.7591
167.500000	90.191	16.6354
170.000000	90.162	16.5399
172.500000	90.132	16.4863
175.000000	90.104	16.4701
177.500000	90.080	16.4559
180.000000	90.059	16.4524
182.500000	90.042	16.4724
185.000000	90.027	16.5004
187.500000	90.013	16.5455
190.000000	90.002	16.5958
192.500000	89.993	16.6379
195.000000	89.984	16.6707
197.500000	89.977	16.6996
200.000000	89.969	16.7376
203.000000	89.958	16.7898
206.000000	89.948	16.8257
209.000000	89.941	16.8422
212.000000	89.931	16.8572
214.000000	89.923	16.8885
218.000000	89.908	17.0325
220.000000	89.905	17.1172
224.000000	89.899	17.2673
227.000000	89.895	17.3617
230.000000	89.893	17.4327
233.000000	89.891	17.4840
236.000000	89.886	17.5363
240.000000	89.875	17.6384
243.000000	89.868	17.7296
247.000000	89.858	17.8486
250.000000	89.849	17.9461
254.000000	89.830	18.1174
258.000000	89.812	18.3536
262.000000	89.805	18.6441
265.000000	89.805	18.8904
269.000000	89.812	19.1957
272.000000	89.822	19.3860
276.000000	89.838	19.6030
280.000000	89.853	19.7976
285.000000	89.867	20.0446
290.000000	89.880	20.2610
295.000000	89.893	20.4944
300.000000	89.903	20.7636
304.000000	89.913	20.9697
307.000000	89.924	21.1135
311.000000	89.940	21.3143
315.000000	89.954	21.5287
320.000000	89.966	21.7716
325.000000	89.982	22.0011
330.000000	89.998	22.2358
335.000000	90.011	22.4880
340.000000	90.032	22.7546
345.000000	90.058	23.0060
350.000000	90.083	23.2216
355.000000	90.105	23.4279
360.000000	90.125	23.6348
365.000000	90.145	23.8416
370.000000	90.166	24.0459
375.000000	90.186	24.2428
382.000000	90.208	24.5102
387.000000	90.219	24.7264
395.000000	90.229	25.1249
400.000000	90.242	25.4263
406.000000	90.268	25.8004
412.000000	90.296	26.1404
418.000000	90.323	26.4478
425.000000	90.347	26.8384
431.000000	90.373	27.2518
437.000000	90.411	27.6675
444.000000	90.460	28.1136
450.000000	90.505	28.4576
455.000000	90.542	28.7206
462.000000	90.597	29.0772
468.000000	90.645	29.3553
475.000000	90.698	29.6613
482.000000	90.748	29.9545
487.000000	90.781	30.1557
494.000000	90.822	30.4653
500.000000	90.858	30.7711
508.000000	90.917	31.1924
515.000000	90.978	31.5318
522.000000	91.041	31.8404
530.000000	91.113	32.1523
538.000000	91.180	32.4194
545.000000	91.235	32.6563
552.000000	91.291	32.8981
560.000000	91.356	33.1652
570.000000	91.437	33.4914
580.000000	91.519	33.7976
590.000000	91.597	34.0794
600.000000	91.673	34.3724
608.000000	91.732	34.6027
615.000000	91.782	34.8172
622.000000	91.835	35.0552
630.000000	91.901	35.3222
640.000000	91.985	35.6144
650.000000	92.066	35.8883
660.000000	92.148	36.1738
670.000000	92.233	36.4298
680.000000	92.313	36.6658
690.000000	92.386	36.9256
700.000000	92.461	37.2557
710.000000	92.549	37.6353
720.000000	92.655	37.9848
730.000000	92.768	38.2188
740.000000	92.872	38.3745
750.000000	92.968	38.5465
762.000000	93.086	38.7905
775.000000	93.229	39.0478
788.000000	93.384	39.1985
800.000000	93.524	39.2349
812.000000	93.658	39.1970
825.000000	93.790	39.1405
838.000000	93.925	39.1222
850.000000	94.057	39.0610
862.000000	94.187	38.9266
875.000000	94.326	38.7301
885.000000	94.432	38.5461
900.000000	94.591	38.1822
912.000000	94.713	37.8006
925.000000	94.830	37.2878
938.000000	94.928	36.7440
950.000000	95.006	36.2675
962.000000	95.079	35.8333
975.000000	95.156	35.3803
988.000000	95.234	34.8861
1000.000000	95.297	34.3763
1015.000000	95.356	33.7455
1030.000000	95.404	33.1620
1044.000000	95.439	32.6046
1060.000000	95.450	32.0363
1075.000000	95.451	31.7779
1090.000000	95.490	31.6900
1106.000000	95.564	31.4126
1120.000000	95.622	30.9978
1138.000000	95.678	30.3356
1150.000000	95.697	29.8570
1172.000000	95.680	29.1519
1180.000000	95.664	29.0489
1206.000000	95.665	29.0188
1220.000000	95.679	28.8494
1241.000000	95.683	28.8394
1250.000000	95.717	28.9218
1265.000000	95.817	28.7693
1280.000000	95.895	28.1881
1315.000000	95.921	26.9547
1320.000000	95.924	26.7752
1340.000000	95.885	25.9237
1360.000000	95.773	25.4908
1380.000000	95.674	25.6345
1400.000000	95.640	26.0277
1430.000000	95.663	26.1462
1450.000000	95.664	26.0383
1475.000000	95.663	25.8752
1500.000000	95.601	25.7324
1525.000000	95.537	26.1575
1550.000000	95.562	26.3152
1575.000000	95.528	26.2726
1600.000000	95.491	26.4092
1625.000000	95.425	26.5068
1650.000000	95.320	26.9681
1675.000000	95.241	27.8642
1700.000000	95.198	28.9571
1725.000000	95.210	30.1836
1750.000000	95.254	31.2035
1775.000000	95.279	32.2837
1800.000000	95.331	33.6600
1825.000000	95.449	35.2170
1850.000000	95.670	36.5500
1875.000000	95.915	37.1753
1900.000000	96.102	37.3885
1925.000000	96.221	37.7310
1950.000000	96.331	38.4796
1975.000000	96.498	39.4591
2000.000000	96.723	40.3233
2030.000000	97.034	41.0788
2060.000000	97.384	41.4425
2090.000000	97.722	41.3070
2120.000000	98.050	40.8733
2140.000000	98.250	40.3060
2180.000000	98.553	38.9560
2200.000000	98.664	38.2421
2240.000000	98.788	37.2995
2270.000000	98.882	37.1762
2300.000000	99.016	37.4417
2330.000000	99.228	37.8789
2360.000000	99.516	38.1936
2400.000000	99.990	38.0319
2430.000000	100.365	37.3285
2470.000000	100.851	35.6899
2500.000000	101.183	33.9066
2540.000000	101.525	30.9704
2580.000000	101.720	27.8703
2620.000000	101.820	25.3579
2650.000000	101.907	23.7701
2690.000000	102.052	21.6149
2720.000000	102.152	19.7499
2760.000000	102.215	17.1161
2800.000000	102.201	14.8226
2850.000000	102.213	12.6907
2900.000000	102.339	10.4406
2950.000000	102.476	7.2136
3000.000000	102.477	3.1281
3040.000000	102.330	-0.0964
3070.000000	102.164	-2.1966
3110.000000	101.919	-4.7003
3150.000000	101.621	-7.1202
3200.000000	101.117	-9.4119
3250.000000	100.576	-10.3425
3300.000000	100.121	-10.4528
3350.000000	99.713	-10.4155
3400.000000	99.265	-9.8043
3450.000000	98.842	-8.1857
3500.000000	98.499	-5.4346
3550.000000	98.409	-1.4435
3600.000000	98.718	2.1460
3650.000000	99.230	3.7476
3700.000000	99.695	3.4312
3750.000000	100.029	2.1091
3820.000000	100.312	-0.2014
3870.000000	100.455	-1.9335
3950.000000	100.547	-5.4197
4000.000000	100.447	-7.5912
4060.000000	100.216	-9.3937
4120.000000	99.974	-10.3024
4180.000000	99.772	-10.6915
4250.000000	99.583	-10.9265
4310.000000	99.420	-10.9967
4370.000000	99.252	-10.6846
4440.000000	99.111	-9.7762
4500.000000	99.065	-8.8063
4550.000000	99.068	-8.0253
4620.000000	99.105	-6.9305
4680.000000	99.173	-5.8055
4750.000000	99.344	-4.2799
4820.000000	99.639	-2.8212
4870.000000	99.923	-1.9591
4940.000000	100.414	-1.1251
5000.000000	100.920	-0.8281
5080.000000	101.731	-1.1750
5150.000000	102.583	-2.4819
5220.000000	103.561	-5.2411
5300.000000	104.750	-11.0579
5380.000000	105.805	-20.6487
5450.000000	106.371	-32.2638
5520.000000	106.405	-45.6948
5600.000000	105.723	-60.4542
5700.000000	104.065	-74.2507
5800.000000	102.064	-82.2219
5900.000000	100.143	-86.1642
6000.000000	98.450	-87.8198
6080.000000	97.263	-88.2905
6150.000000	96.327	-88.4126
6220.000000	95.461	-88.4352
6300.000000	94.526	-88.4753
6400.000000	93.379	-88.5939
6500.000000	92.218	-88.6981
6600.000000	91.035	-88.8185
6700.000000	89.792	-89.3768
6800.000000	88.363	-90.8408
6900.000000	86.497	-92.7948
7000.000000	83.802	-90.7334
7100.000000	80.033	-70.0453
7200.000000	78.011	-25.5646
7300.000000	80.738	8.5104
7400.000000	83.421	19.1117
7500.000000	85.176	21.1946
7620.000000	86.695	23.5278
7750.000000	88.342	27.6002
7880.000000	90.264	30.8146
8000.000000	92.143	31.2820
8120.000000	94.072	29.2271
8250.000000	96.187	23.2978
8380.000000	97.937	11.5772
8500.000000	98.755	-3.6135
8620.000000	98.701	-18.9780
8750.000000	97.978	-32.1994
8850.000000	97.241	-39.7914
9000.000000	96.175	-48.9507
9120.000000	95.434	-56.5837
9250.000000	94.538	-67.5162
9380.000000	93.053	-81.1238
9500.000000	90.730	-91.6006
9620.000000	87.325	-92.0214
9750.000000	82.671	-71.8102
9880.000000	79.479	-36.2181
10000.000000	80.493	-10.4352
10150.000000	82.966	3.3085
10300.000000	84.882	5.8043
10440.000000	86.140	3.5061
10600.000000	87.023	-1.8928
10750.000000	87.375	-8.3740
10900.000000	87.274	-15.3132
11060.000000	86.715	-22.0067
11200.000000	85.931	-26.7695
11380.000000	84.618	-31.6478
11500.000000	83.489	-34.2809
11720.000000	80.383	-31.6558
11800.000000	78.905	-24.9031
12060.000000	76.995	21.2659
12200.000000	79.964	44.9042
12410.000000	84.892	57.4358
12500.000000	86.634	55.4126
12650.000000	88.861	45.2500
12800.000000	90.096	29.6191
13150.000000	89.422	-4.4027
13200.000000	89.056	-7.5237
13400.000000	87.384	-15.9016
13600.000000	85.648	-19.9356
13800.000000	83.947	-21.3035
14000.000000	82.260	-21.3271
14300.000000	79.412	-13.2204
14500.000000	78.728	-6.1774
14750.000000	79.025	-18.8683
15000.000000	78.850	-71.4589
15250.000000	79.363	-155.9504
15500.000000	80.841	136.8971
15750.000000	81.384	105.7973
16000.000000	81.811	98.6849
16250.000000	83.347	99.5370
16500.000000	85.492	97.4662
16750.000000	87.694	90.8813
17000.000000	89.835	78.4441
17250.000000	90.952	57.0995
17500.000000	90.363	34.3708
17750.000000	88.414	20.7605
18000.000000	86.095	17.3552
18250.000000	84.220	19.0283
18500.000000	82.779	23.2503
18750.000000	81.792	30.7459
19000.000000	81.844	38.6332
19250.000000	82.569	40.3167
19500.000000	82.801	34.5886
19750.000000	82.145	27.2628
