* Measurement data measured by REW V5.20.13
* Source: Headset (KM-HIFI-384KHZ), MICROPHONE (Master Volume), R, volume: 0.600
* Format: 256k Log Swept Sine, 1 sweep at -13.0 dBFS with no timing reference
* Dated: Aug 6, 2023 7:55:38 PM
* REW Settings:
*  C-weighting compensation: Off
*  Target level: 75.0 dB
* Note: 
* Measurement: Aug 6
* Smoothing: 1/24 octave
* Frequency Step: 1/48 octave
* Start Frequency: 20.000 Hz
*
* Freq(Hz)	SPL(dB)	Phase(degrees)
20.000000	79.383	-87.6440
20.299999	79.543	-88.6597
20.600000	79.700	-89.6862
20.900000	79.851	-90.7222
21.200001	79.996	-91.7616
21.400000	80.088	-92.4513
21.799999	80.265	-93.8121
22.000000	80.350	-94.4780
22.400000	80.513	-95.7722
22.700001	80.634	-96.7100
23.000000	80.756	-97.6283
23.299999	80.879	-98.5461
23.600000	81.005	-99.4838
24.000000	81.171	-100.7916
24.299999	81.290	-101.8196
24.700001	81.436	-103.2277
25.000000	81.535	-104.2763
25.400000	81.657	-105.6193
25.799999	81.776	-106.8798
26.200001	81.902	-108.0856
26.500000	82.002	-108.9889
26.900000	82.141	-110.2296
27.200001	82.244	-111.1982
27.600000	82.377	-112.5319
28.000000	82.502	-113.8853
28.500000	82.647	-115.5657
29.000000	82.784	-117.2175
29.500000	82.917	-118.8514
30.000000	83.045	-120.4893
30.400000	83.144	-121.8166
30.700001	83.213	-122.8256
31.100000	83.299	-124.1838
31.500000	83.375	-125.5437
32.000000	83.460	-127.2266
32.500000	83.536	-128.8962
33.000000	83.605	-130.5925
33.500000	83.660	-132.3470
34.000000	83.690	-134.1433
34.500000	83.687	-135.9128
35.000000	83.648	-137.5591
35.500000	83.577	-138.9399
36.000000	83.491	-139.8912
36.500000	83.431	-140.3306
37.000000	83.455	-140.4127
37.500000	83.587	-140.5293
38.200001	83.897	-141.5334
38.700001	84.126	-143.0350
39.500000	84.398	-146.3142
40.000000	84.509	-148.6228
40.599998	84.592	-151.5792
41.200001	84.613	-154.7386
41.799999	84.555	-157.9825
42.500000	84.390	-161.6396
43.099998	84.184	-164.5646
43.700001	83.924	-167.2987
44.400002	83.551	-170.2139
45.000000	83.165	-172.3672
45.500000	82.800	-173.8060
46.200001	82.240	-175.1129
46.799999	81.748	-175.5065
47.500000	81.200	-175.2552
48.200001	80.683	-174.4064
48.700001	80.319	-173.3156
49.400002	79.855	-170.7391
50.000000	79.605	-167.5957
50.799999	79.612	-163.1447
51.500000	79.876	-160.1149
52.200001	80.252	-158.2371
53.000000	80.725	-157.4042
53.799999	81.169	-157.8618
54.500000	81.479	-159.0692
55.200001	81.705	-160.6786
56.000000	81.874	-162.7369
57.000000	81.979	-165.3829
58.000000	82.025	-167.9227
59.000000	82.055	-170.7744
60.000000	81.992	-174.1987
60.799999	81.839	-177.0269
61.500000	81.640	-179.4567
62.200001	81.370	178.1594
63.000000	80.951	175.6743
64.000000	80.251	173.4951
65.000000	79.411	172.9373
66.000000	78.531	174.2073
67.000000	77.701	177.3214
68.000000	77.048	-177.8702
69.000000	76.704	-172.2248
70.000000	76.668	-166.7875
71.000000	76.841	-162.1472
72.000000	77.123	-158.3719
73.000000	77.470	-155.2745
74.000000	77.870	-152.7457
75.000000	78.321	-150.7999
76.199997	78.904	-149.4366
77.500000	79.505	-149.3001
78.800003	79.969	-150.2931
80.000000	80.232	-151.4241
81.199997	80.402	-151.9951
82.500000	80.626	-151.8846
83.800003	80.961	-151.7462
85.000000	81.330	-152.1251
86.199997	81.699	-153.0818
87.500000	82.073	-154.6310
88.500000	82.336	-156.1526
90.000000	82.675	-158.9225
91.199997	82.891	-161.5898
92.500000	83.031	-164.9556
93.800003	83.038	-168.5373
95.000000	82.934	-171.7443
96.199997	82.733	-174.7291
97.500000	82.398	-177.4911
98.800003	81.946	-179.3308
100.000000	81.479	-179.8610
101.500000	80.955	-179.1407
103.000000	80.569	-177.5991
104.400002	80.330	-175.8235
106.000000	80.201	-173.5428
107.500000	80.233	-171.2997
109.000000	80.406	-169.3297
110.599998	80.674	-167.9912
112.000000	80.917	-167.5823
113.800003	81.214	-168.0093
115.000000	81.406	-168.7805
117.199997	81.752	-170.8122
118.000000	81.867	-171.7117
120.599998	81.927	-174.9042
122.000000	81.743	-175.5759
124.099998	81.464	-175.5059
125.000000	81.367	-175.3237
126.500000	81.278	-174.8338
128.000000	81.312	-174.2768
131.500000	81.643	-173.8334
132.000000	81.689	-173.8857
134.000000	81.850	-174.3721
136.000000	81.988	-175.3387
138.000000	82.111	-176.6190
140.000000	82.211	-177.9214
143.000000	82.303	179.9486
145.000000	82.316	178.3011
147.500000	82.314	176.0898
150.000000	82.273	173.9667
152.500000	82.168	172.0860
155.000000	82.000	170.2980
157.500000	81.800	168.6641
160.000000	81.593	167.3281
162.500000	81.373	166.2000
165.000000	81.130	165.1649
167.500000	80.889	164.2703
170.000000	80.665	163.5336
172.500000	80.431	162.9697
175.000000	80.173	162.5797
177.500000	79.908	162.3397
180.000000	79.645	162.2699
182.500000	79.382	162.4973
185.000000	79.131	162.9975
187.500000	78.893	163.6430
190.000000	78.674	164.4854
192.500000	78.500	165.4905
195.000000	78.370	166.5022
197.500000	78.267	167.4793
200.000000	78.189	168.3551
203.000000	78.115	169.2109
206.000000	78.050	169.8960
209.000000	77.979	170.4257
212.000000	77.887	170.8687
214.000000	77.813	171.1976
218.000000	77.647	172.0331
220.000000	77.554	172.5533
224.000000	77.362	173.8491
227.000000	77.222	175.1447
230.000000	77.110	176.8735
233.000000	77.076	179.0056
236.000000	77.173	-178.8541
240.000000	77.460	-176.9749
243.000000	77.664	-176.5668
247.000000	77.809	-176.6041
250.000000	77.858	-176.4899
254.000000	77.922	-176.0370
258.000000	78.010	-175.5753
262.000000	78.103	-175.2726
265.000000	78.167	-175.1013
269.000000	78.245	-174.9122
272.000000	78.300	-174.8020
276.000000	78.369	-174.6894
280.000000	78.427	-174.6345
285.000000	78.485	-174.6568
290.000000	78.535	-174.6795
295.000000	78.580	-174.6473
300.000000	78.621	-174.5786
304.000000	78.652	-174.5518
307.000000	78.675	-174.5426
311.000000	78.706	-174.5486
315.000000	78.730	-174.5781
320.000000	78.756	-174.5638
325.000000	78.792	-174.5069
330.000000	78.834	-174.5368
335.000000	78.869	-174.6780
340.000000	78.891	-174.8515
345.000000	78.901	-174.9941
350.000000	78.902	-175.0982
355.000000	78.903	-175.1572
360.000000	78.902	-175.1877
365.000000	78.901	-175.2035
370.000000	78.898	-175.1926
375.000000	78.901	-175.1476
382.000000	78.918	-175.1190
387.000000	78.929	-175.1682
395.000000	78.930	-175.2594
400.000000	78.927	-175.2812
406.000000	78.923	-175.2760
412.000000	78.922	-175.2840
418.000000	78.922	-175.3228
425.000000	78.917	-175.3732
431.000000	78.906	-175.3996
437.000000	78.893	-175.3987
444.000000	78.876	-175.3629
450.000000	78.864	-175.3185
455.000000	78.855	-175.2810
462.000000	78.843	-175.2259
468.000000	78.832	-175.1788
475.000000	78.818	-175.1219
482.000000	78.804	-175.0463
487.000000	78.794	-174.9816
494.000000	78.781	-174.8922
500.000000	78.770	-174.8209
508.000000	78.754	-174.7230
515.000000	78.740	-174.6326
522.000000	78.724	-174.5343
530.000000	78.705	-174.4166
538.000000	78.687	-174.2958
545.000000	78.671	-174.1862
552.000000	78.652	-174.0646
560.000000	78.630	-173.9075
570.000000	78.602	-173.6998
580.000000	78.572	-173.4816
590.000000	78.537	-173.2170
600.000000	78.505	-172.8834
608.000000	78.484	-172.5815
615.000000	78.468	-172.3063
622.000000	78.454	-172.0278
630.000000	78.441	-171.7032
640.000000	78.430	-171.2845
650.000000	78.424	-170.8748
660.000000	78.419	-170.4625
670.000000	78.416	-170.0291
680.000000	78.418	-169.5918
690.000000	78.422	-169.1676
700.000000	78.426	-168.7289
710.000000	78.434	-168.2496
720.000000	78.452	-167.7468
730.000000	78.482	-167.2623
740.000000	78.518	-166.8260
750.000000	78.559	-166.4313
762.000000	78.613	-166.0275
775.000000	78.669	-165.6935
788.000000	78.716	-165.4319
800.000000	78.748	-165.2037
812.000000	78.771	-164.9424
825.000000	78.790	-164.5727
838.000000	78.821	-164.1042
850.000000	78.873	-163.6366
862.000000	78.948	-163.2828
875.000000	79.035	-163.1193
885.000000	79.087	-163.1112
900.000000	79.137	-163.1440
912.000000	79.163	-163.1360
925.000000	79.185	-163.0880
938.000000	79.205	-163.0187
950.000000	79.221	-162.9476
962.000000	79.234	-162.8802
975.000000	79.244	-162.8133
988.000000	79.248	-162.7407
1000.000000	79.245	-162.6574
1015.000000	79.235	-162.5212
1030.000000	79.220	-162.3445
1044.000000	79.202	-162.1278
1060.000000	79.178	-161.8177
1075.000000	79.158	-161.4836
1090.000000	79.139	-161.1405
1106.000000	79.112	-160.7704
1120.000000	79.080	-160.4113
1138.000000	79.029	-159.8661
1150.000000	78.987	-159.4250
1172.000000	78.902	-158.3402
1180.000000	78.873	-157.8323
1206.000000	78.834	-155.8245
1220.000000	78.855	-154.6903
1241.000000	78.919	-153.0609
1250.000000	78.958	-152.3662
1265.000000	79.039	-151.2406
1280.000000	79.138	-150.1996
1315.000000	79.401	-148.1331
1320.000000	79.441	-147.8740
1340.000000	79.600	-146.9052
1360.000000	79.760	-146.0102
1380.000000	79.924	-145.1739
1400.000000	80.091	-144.4032
1430.000000	80.343	-143.3448
1450.000000	80.514	-142.6957
1475.000000	80.733	-141.9588
1500.000000	80.955	-141.2924
1525.000000	81.180	-140.6946
1550.000000	81.410	-140.1652
1575.000000	81.642	-139.7175
1600.000000	81.874	-139.3538
1625.000000	82.105	-139.0520
1650.000000	82.333	-138.7947
1675.000000	82.564	-138.5814
1700.000000	82.799	-138.4119
1725.000000	83.040	-138.3041
1750.000000	83.283	-138.2826
1775.000000	83.528	-138.3511
1800.000000	83.774	-138.5150
1825.000000	84.017	-138.7693
1850.000000	84.256	-139.1117
1875.000000	84.492	-139.5386
1900.000000	84.722	-140.0515
1925.000000	84.945	-140.6511
1950.000000	85.162	-141.3293
1975.000000	85.369	-142.0853
2000.000000	85.566	-142.9197
2030.000000	85.787	-144.0167
2060.000000	85.985	-145.1931
2090.000000	86.161	-146.4133
2120.000000	86.314	-147.6517
2140.000000	86.405	-148.4636
2180.000000	86.567	-150.0338
2200.000000	86.639	-150.7911
2240.000000	86.773	-152.2389
2270.000000	86.868	-153.2852
2300.000000	86.959	-154.3264
2330.000000	87.045	-155.3719
2360.000000	87.125	-156.4223
2400.000000	87.220	-157.8358
2430.000000	87.281	-158.8980
2470.000000	87.353	-160.2859
2500.000000	87.402	-161.3115
2540.000000	87.458	-162.6791
2580.000000	87.501	-164.0485
2620.000000	87.531	-165.3741
2650.000000	87.550	-166.3175
2690.000000	87.578	-167.5232
2720.000000	87.605	-168.4298
2760.000000	87.646	-169.6959
2800.000000	87.686	-171.0533
2850.000000	87.730	-172.8961
2900.000000	87.759	-174.9291
2950.000000	87.757	-177.1520
3000.000000	87.714	-179.4941
3040.000000	87.650	178.5999
3070.000000	87.586	177.1623
3110.000000	87.480	175.2421
3150.000000	87.351	173.3304
3200.000000	87.157	170.9673
3250.000000	86.930	168.6295
3300.000000	86.670	166.2946
3350.000000	86.372	163.9288
3400.000000	86.021	161.5184
3450.000000	85.599	159.1323
3500.000000	85.091	156.9362
3550.000000	84.498	155.1335
3600.000000	83.831	153.9158
3650.000000	83.113	153.4241
3700.000000	82.373	153.7177
3750.000000	81.638	154.7965
3820.000000	80.668	157.5262
3870.000000	80.046	160.2222
3950.000000	79.209	165.5811
4000.000000	78.807	169.4326
4060.000000	78.469	174.3579
4120.000000	78.299	179.3262
4180.000000	78.284	-175.9896
4250.000000	78.420	-171.1441
4310.000000	78.639	-167.6243
4370.000000	78.928	-164.7949
4440.000000	79.308	-162.5148
4500.000000	79.625	-161.4393
4550.000000	79.853	-161.0698
4620.000000	80.088	-161.1183
4680.000000	80.201	-161.4234
4750.000000	80.242	-161.7734
4820.000000	80.212	-161.8781
4870.000000	80.168	-161.7498
4940.000000	80.099	-161.3483
5000.000000	80.033	-160.8538
5080.000000	79.940	-159.9404
5150.000000	79.871	-158.8853
5220.000000	79.826	-157.6589
5300.000000	79.810	-156.1243
5380.000000	79.836	-154.6185
5450.000000	79.868	-153.4810
5520.000000	79.868	-152.4231
5600.000000	79.809	-150.9006
5700.000000	79.707	-147.8502
5800.000000	79.731	-143.2561
5900.000000	80.057	-137.5604
6000.000000	80.797	-131.8793
6080.000000	81.666	-128.3128
6150.000000	82.552	-126.4351
6220.000000	83.476	-125.8849
6300.000000	84.507	-126.8068
6400.000000	85.678	-130.0100
6500.000000	86.643	-135.1519
6600.000000	87.327	-141.7867
6700.000000	87.665	-149.1921
6800.000000	87.645	-156.3387
6900.000000	87.329	-162.2855
7000.000000	86.822	-166.5224
7100.000000	86.237	-168.9891
7200.000000	85.666	-169.9236
7300.000000	85.167	-169.7007
7400.000000	84.766	-168.6671
7500.000000	84.467	-167.1260
7620.000000	84.223	-164.8689
7750.000000	84.085	-161.9457
7880.000000	84.116	-158.5498
8000.000000	84.342	-155.3497
8120.000000	84.759	-152.5345
8250.000000	85.404	-150.2547
8380.000000	86.250	-149.0906
8500.000000	87.201	-149.4996
8620.000000	88.265	-151.9021
8750.000000	89.454	-157.3469
8850.000000	90.316	-163.9650
9000.000000	91.297	-178.6952
9120.000000	91.522	165.2946
9250.000000	90.893	145.8683
9380.000000	89.292	128.1891
9500.000000	87.130	115.5892
9620.000000	84.543	106.3575
9750.000000	81.408	98.3188
9880.000000	77.851	88.1850
10000.000000	73.963	66.7861
10150.000000	69.320	3.7593
10300.000000	71.390	-66.7424
10440.000000	75.100	-98.1263
10600.000000	78.085	-112.5510
10750.000000	79.921	-122.1927
10900.000000	80.982	-131.4886
11060.000000	81.396	-139.8801
11200.000000	81.353	-144.6357
11380.000000	81.077	-146.6455
11500.000000	80.955	-145.5118
11720.000000	81.383	-140.5881
11800.000000	81.765	-139.0349
12060.000000	83.081	-137.6497
12200.000000	83.671	-137.3206
12410.000000	84.985	-135.1653
12500.000000	85.828	-134.5981
12650.000000	87.459	-136.1636
12800.000000	89.039	-142.3019
13150.000000	90.660	-172.7719
13200.000000	90.555	-177.6631
13400.000000	89.399	166.2593
13600.000000	87.614	157.5984
13800.000000	85.934	154.3159
14000.000000	84.698	153.1171
14300.000000	83.582	150.7219
14500.000000	83.129	146.9215
14750.000000	82.457	137.9855
15000.000000	81.042	126.5898
15250.000000	78.602	119.0728
15500.000000	75.365	122.4524
15750.000000	72.576	137.7815
16000.000000	72.063	156.9972
16250.000000	73.619	170.8169
16500.000000	75.539	175.0237
16750.000000	76.978	172.1508
17000.000000	77.920	166.1956
17250.000000	78.511	157.6023
17500.000000	78.398	145.3193
17750.000000	77.090	133.9954
18000.000000	74.736	130.5347
18250.000000	72.142	135.3779
18500.000000	70.140	143.8790
18750.000000	68.918	151.6348
19000.000000	68.115	156.3655
19250.000000	67.329	158.2168
19500.000000	66.563	157.5503
19750.000000	65.917	153.5801
