* Measurement data measured by REW V5.20.13
* Source: Headset (KM-HIFI-384KHZ), MICROPHONE (Master Volume), R, volume: 0.510
* Format: 256k Log Swept Sine, 1 sweep at -13.0 dBFS with no timing reference
* Dated: Aug 6, 2023 7:49:35 PM
* REW Settings:
*  C-weighting compensation: Off
*  Target level: 75.0 dB
* Note: 
* Measurement: Aug 6
* Smoothing: 1/24 octave
* Frequency Step: 1/48 octave
* Start Frequency: 20.000 Hz
*
* Freq(Hz)	SPL(dB)	Phase(degrees)
20.000000	64.887	-87.5678
20.299999	65.006	-88.3733
20.600000	65.113	-89.1698
20.900000	65.212	-89.9388
21.200001	65.306	-90.6760
21.400000	65.369	-91.1526
21.799999	65.492	-92.0703
22.000000	65.554	-92.5095
22.400000	65.681	-93.3401
22.700001	65.783	-93.9232
23.000000	65.894	-94.4909
23.299999	66.014	-95.0777
23.600000	66.140	-95.7113
24.000000	66.304	-96.6441
24.299999	66.416	-97.3805
24.700001	66.546	-98.3263
25.000000	66.632	-98.9429
25.400000	66.745	-99.5977
25.799999	66.872	-100.1045
26.200001	67.020	-100.5852
26.500000	67.139	-101.0038
26.900000	67.295	-101.6832
27.200001	67.399	-102.2661
27.600000	67.513	-103.0691
28.000000	67.601	-103.7992
28.500000	67.697	-104.5199
29.000000	67.804	-105.0871
29.500000	67.933	-105.6785
30.000000	68.067	-106.4440
30.400000	68.163	-107.1800
30.700001	68.223	-107.7650
31.100000	68.291	-108.5285
31.500000	68.351	-109.2403
32.000000	68.426	-110.0674
32.500000	68.505	-110.8749
33.000000	68.587	-111.6863
33.500000	68.670	-112.4901
34.000000	68.757	-113.3023
34.500000	68.845	-114.1720
35.000000	68.919	-115.0915
35.500000	68.971	-115.9370
36.000000	69.019	-116.5720
36.500000	69.093	-117.0184
37.000000	69.209	-117.4907
37.500000	69.349	-118.1942
38.200001	69.523	-119.5479
38.700001	69.617	-120.5627
39.500000	69.758	-122.1021
40.000000	69.839	-123.1190
40.599998	69.905	-124.3601
41.200001	69.937	-125.3701
41.799999	69.977	-126.0514
42.500000	70.072	-126.7332
43.099998	70.173	-127.5362
43.700001	70.253	-128.5664
44.400002	70.304	-129.8961
45.000000	70.317	-131.0994
45.500000	70.305	-132.2003
46.200001	70.233	-133.9104
46.799999	70.098	-135.3943
47.500000	69.848	-136.8471
48.200001	69.506	-137.6327
48.700001	69.225	-137.4701
49.400002	68.874	-135.8416
50.000000	68.755	-133.3948
50.799999	68.958	-130.1140
51.500000	69.341	-128.4177
52.200001	69.736	-127.9681
53.000000	70.086	-128.3701
53.799999	70.320	-128.9920
54.500000	70.468	-129.5186
55.200001	70.562	-130.0421
56.000000	70.632	-130.3882
57.000000	70.800	-130.9023
58.000000	70.948	-132.7513
59.000000	70.938	-134.9157
60.000000	70.913	-136.9516
60.799999	70.844	-138.7091
61.500000	70.724	-139.9012
62.200001	70.587	-140.5362
63.000000	70.441	-140.5609
64.000000	70.339	-139.5617
65.000000	70.394	-138.0796
66.000000	70.562	-136.8438
67.000000	70.789	-136.0829
68.000000	71.037	-135.9797
69.000000	71.259	-136.4626
70.000000	71.443	-137.2835
71.000000	71.596	-138.2072
72.000000	71.735	-139.1351
73.000000	71.861	-140.0869
74.000000	71.963	-141.0266
75.000000	72.043	-141.9131
76.199997	72.119	-142.9421
77.500000	72.180	-144.0715
78.800003	72.230	-145.1734
80.000000	72.277	-146.1482
81.199997	72.325	-147.0625
82.500000	72.376	-147.9933
83.800003	72.411	-148.8904
85.000000	72.431	-149.6992
86.199997	72.445	-150.5375
87.500000	72.461	-151.4980
88.500000	72.477	-152.2929
90.000000	72.493	-153.4476
91.199997	72.506	-154.2028
92.500000	72.530	-155.0186
93.800003	72.492	-155.9818
95.000000	72.392	-156.4950
96.199997	72.310	-156.6945
97.500000	72.253	-156.9338
98.800003	72.216	-157.2601
100.000000	72.186	-157.5925
101.500000	72.152	-157.8275
103.000000	72.157	-157.8599
104.400002	72.193	-157.9252
106.000000	72.254	-158.1425
107.500000	72.310	-158.5251
109.000000	72.346	-159.0113
110.599998	72.366	-159.5121
112.000000	72.385	-160.0066
113.800003	72.409	-160.8004
115.000000	72.426	-161.3513
117.199997	72.472	-162.1824
118.000000	72.498	-162.4231
120.599998	72.516	-163.6651
122.000000	72.404	-164.2115
124.099998	72.223	-164.4769
125.000000	72.165	-164.5406
126.500000	72.099	-164.5980
128.000000	72.073	-164.5551
131.500000	72.137	-164.3143
132.000000	72.154	-164.3369
134.000000	72.215	-164.6585
136.000000	72.264	-165.1723
138.000000	72.307	-165.7516
140.000000	72.332	-166.2864
143.000000	72.334	-167.0366
145.000000	72.320	-167.4743
147.500000	72.309	-168.0380
150.000000	72.282	-168.6059
152.500000	72.235	-169.0455
155.000000	72.199	-169.4545
157.500000	72.172	-169.8555
160.000000	72.165	-170.1735
162.500000	72.173	-170.4642
165.000000	72.197	-170.8279
167.500000	72.201	-171.2269
170.000000	72.201	-171.4467
172.500000	72.197	-171.7278
175.000000	72.169	-172.0546
177.500000	72.139	-172.4082
180.000000	72.121	-172.7832
182.500000	72.120	-173.1708
185.000000	72.116	-173.5302
187.500000	72.101	-173.8864
190.000000	72.068	-174.2864
192.500000	72.032	-174.6772
195.000000	72.001	-175.0418
197.500000	71.973	-175.3539
200.000000	71.949	-175.6303
203.000000	71.927	-175.9289
206.000000	71.902	-176.2531
209.000000	71.845	-176.6362
212.000000	71.784	-176.9642
214.000000	71.755	-177.1798
218.000000	71.700	-177.5459
220.000000	71.672	-177.6907
224.000000	71.613	-177.9834
227.000000	71.572	-178.1566
230.000000	71.537	-178.3023
233.000000	71.492	-178.4411
236.000000	71.446	-178.5547
240.000000	71.406	-178.7550
243.000000	71.376	-178.8825
247.000000	71.321	-178.9797
250.000000	71.266	-179.0352
254.000000	71.196	-179.0465
258.000000	71.144	-179.0450
262.000000	71.098	-179.0513
265.000000	71.055	-179.0843
269.000000	71.009	-179.1181
272.000000	70.997	-179.1445
276.000000	70.982	-179.1580
280.000000	70.946	-179.1645
285.000000	70.894	-179.2203
290.000000	70.841	-179.2777
295.000000	70.783	-179.1239
300.000000	70.741	-178.9595
304.000000	70.710	-178.8705
307.000000	70.687	-178.7955
311.000000	70.660	-178.7065
315.000000	70.637	-178.6384
320.000000	70.614	-178.5486
325.000000	70.586	-178.4376
330.000000	70.568	-178.3228
335.000000	70.561	-178.1951
340.000000	70.540	-178.1680
345.000000	70.515	-178.1355
350.000000	70.499	-178.0431
355.000000	70.475	-177.9259
360.000000	70.444	-177.8117
365.000000	70.427	-177.6730
370.000000	70.424	-177.5013
375.000000	70.427	-177.3545
382.000000	70.404	-177.2180
387.000000	70.378	-177.1607
395.000000	70.355	-177.0456
400.000000	70.352	-176.9710
406.000000	70.359	-176.9482
412.000000	70.354	-176.9806
418.000000	70.315	-176.8412
425.000000	70.280	-176.5176
431.000000	70.261	-176.3245
437.000000	70.252	-176.2513
444.000000	70.247	-176.1997
450.000000	70.228	-176.0952
455.000000	70.217	-175.9830
462.000000	70.214	-175.8787
468.000000	70.200	-175.8145
475.000000	70.166	-175.6447
482.000000	70.140	-175.4027
487.000000	70.137	-175.2731
494.000000	70.138	-175.1664
500.000000	70.122	-175.0852
508.000000	70.085	-174.9159
515.000000	70.059	-174.7363
522.000000	70.042	-174.5704
530.000000	70.037	-174.3599
538.000000	70.030	-174.0775
545.000000	70.028	-173.8448
552.000000	70.033	-173.6282
560.000000	70.026	-173.3845
570.000000	69.997	-173.1017
580.000000	69.981	-172.7692
590.000000	69.989	-172.4054
600.000000	69.997	-172.1761
608.000000	70.005	-171.9821
615.000000	70.008	-171.8119
622.000000	70.008	-171.6133
630.000000	70.010	-171.3634
640.000000	70.030	-171.0823
650.000000	70.050	-170.9082
660.000000	70.046	-170.6070
670.000000	70.044	-170.2489
680.000000	70.061	-170.0881
690.000000	70.076	-169.9294
700.000000	70.084	-169.6290
710.000000	70.105	-169.2744
720.000000	70.125	-169.0687
730.000000	70.136	-168.9615
740.000000	70.145	-168.8784
750.000000	70.157	-168.7603
762.000000	70.182	-168.5810
775.000000	70.199	-168.4588
788.000000	70.194	-168.2678
800.000000	70.199	-168.1696
812.000000	70.196	-168.1781
825.000000	70.169	-168.1616
838.000000	70.116	-168.0466
850.000000	70.044	-167.8530
862.000000	69.944	-167.4232
875.000000	69.838	-166.5457
885.000000	69.806	-165.6648
900.000000	69.841	-164.2650
912.000000	69.911	-163.2102
925.000000	70.015	-162.2811
938.000000	70.123	-161.6222
950.000000	70.224	-161.2546
962.000000	70.310	-160.9157
975.000000	70.405	-160.5760
988.000000	70.506	-160.3871
1000.000000	70.583	-160.2728
1015.000000	70.669	-160.1335
1030.000000	70.750	-160.0999
1044.000000	70.809	-160.1220
1060.000000	70.861	-160.0780
1075.000000	70.912	-159.9684
1090.000000	70.966	-159.9611
1106.000000	71.009	-159.9818
1120.000000	71.036	-159.9191
1138.000000	71.077	-159.7764
1150.000000	71.107	-159.7044
1172.000000	71.145	-159.4626
1180.000000	71.161	-159.3281
1206.000000	71.232	-159.0551
1220.000000	71.267	-158.8922
1241.000000	71.338	-158.6055
1250.000000	71.366	-158.5552
1265.000000	71.406	-158.4683
1280.000000	71.460	-158.4072
1315.000000	71.553	-158.6207
1320.000000	71.560	-158.6885
1340.000000	71.547	-158.9313
1360.000000	71.496	-158.7406
1380.000000	71.481	-158.3728
1400.000000	71.462	-157.9356
1430.000000	71.489	-156.7145
1450.000000	71.579	-156.1544
1475.000000	71.671	-155.8424
1500.000000	71.717	-155.5902
1525.000000	71.753	-155.0673
1550.000000	71.841	-154.5362
1575.000000	71.925	-154.3727
1600.000000	71.933	-154.1590
1625.000000	71.965	-153.3044
1650.000000	72.059	-152.6415
1675.000000	72.132	-152.0316
1700.000000	72.249	-151.3464
1725.000000	72.376	-151.0058
1750.000000	72.488	-150.7408
1775.000000	72.594	-150.5614
1800.000000	72.665	-150.4227
1825.000000	72.714	-150.1566
1850.000000	72.776	-149.6252
1875.000000	72.897	-149.2158
1900.000000	72.969	-149.3135
1925.000000	72.956	-148.9881
1950.000000	72.988	-147.9883
1975.000000	73.088	-146.9384
2000.000000	73.230	-145.9050
2030.000000	73.474	-144.9892
2060.000000	73.722	-144.5892
2090.000000	73.949	-144.5936
2120.000000	74.067	-144.7757
2140.000000	74.117	-144.5072
2180.000000	74.314	-143.3398
2200.000000	74.469	-142.7672
2240.000000	74.843	-142.0385
2270.000000	75.151	-142.1179
2300.000000	75.387	-142.7192
2330.000000	75.540	-143.1033
2360.000000	75.691	-143.0454
2400.000000	75.941	-142.8206
2430.000000	76.165	-142.5969
2470.000000	76.515	-142.5536
2500.000000	76.790	-142.6644
2540.000000	77.211	-143.2957
2580.000000	77.549	-144.7548
2620.000000	77.785	-146.0275
2650.000000	77.961	-146.7076
2690.000000	78.232	-147.4787
2720.000000	78.473	-148.1835
2760.000000	78.793	-149.5155
2800.000000	79.085	-151.1273
2850.000000	79.401	-153.2937
2900.000000	79.726	-155.5202
2950.000000	80.010	-158.3483
3000.000000	80.198	-161.2169
3040.000000	80.328	-163.2711
3070.000000	80.446	-164.7948
3110.000000	80.613	-167.1929
3150.000000	80.709	-170.0449
3200.000000	80.677	-173.3674
3250.000000	80.616	-175.5686
3300.000000	80.718	-177.6541
3350.000000	80.811	179.2133
3400.000000	80.786	175.9152
3450.000000	80.722	172.7876
3500.000000	80.618	169.4629
3550.000000	80.416	166.2888
3600.000000	80.183	163.5042
3650.000000	79.928	160.7206
3700.000000	79.584	158.1089
3750.000000	79.184	156.3072
3820.000000	78.717	154.5824
3870.000000	78.433	153.2375
3950.000000	77.897	150.9336
4000.000000	77.503	149.9261
4060.000000	77.017	149.2460
4120.000000	76.535	149.1019
4180.000000	76.070	149.3582
4250.000000	75.510	150.5040
4310.000000	75.117	152.5260
4370.000000	74.881	154.8273
4440.000000	74.725	157.5142
4500.000000	74.730	160.0156
4550.000000	74.860	161.7808
4620.000000	75.162	163.3158
4680.000000	75.458	163.6360
4750.000000	75.768	163.0814
4820.000000	76.023	161.8627
4870.000000	76.157	160.6610
4940.000000	76.259	158.7223
5000.000000	76.269	157.1797
5080.000000	76.271	155.5311
5150.000000	76.286	153.9563
5220.000000	76.264	152.3457
5300.000000	76.235	150.6132
5380.000000	76.211	148.8335
5450.000000	76.187	147.1664
5520.000000	76.161	145.4644
5600.000000	76.167	143.3632
5700.000000	76.196	139.6410
5800.000000	76.063	134.6788
5900.000000	75.726	129.0869
6000.000000	75.065	123.1702
6080.000000	74.263	119.5139
6150.000000	73.461	117.4666
6220.000000	72.613	116.2936
6300.000000	71.595	116.1528
6400.000000	70.345	117.9492
6500.000000	69.239	121.1384
6600.000000	68.232	125.4015
6700.000000	67.352	130.9175
6800.000000	66.643	137.4161
6900.000000	66.148	144.9759
7000.000000	65.975	153.0539
7100.000000	66.113	160.9089
7200.000000	66.567	168.1294
7300.000000	67.287	173.8855
7400.000000	68.140	177.8230
7500.000000	69.051	179.8965
7620.000000	70.075	179.8923
7750.000000	70.979	177.5176
7880.000000	71.580	173.4727
8000.000000	71.869	169.5063
8120.000000	72.019	165.8492
8250.000000	72.114	162.1281
8380.000000	72.183	158.2491
8500.000000	72.206	154.2568
8620.000000	72.170	149.7518
8750.000000	72.035	144.2853
8850.000000	71.855	139.7100
9000.000000	71.435	131.9564
9120.000000	70.874	125.0044
9250.000000	69.945	117.4613
9380.000000	68.668	111.0560
9500.000000	67.269	106.6691
9620.000000	65.734	103.6472
9750.000000	63.938	101.5499
9880.000000	61.933	100.7360
10000.000000	59.792	102.0279
10150.000000	56.544	110.2548
10300.000000	52.754	135.5317
10440.000000	51.540	176.1656
10600.000000	55.331	-145.5338
10750.000000	59.019	-132.5314
10900.000000	61.757	-132.5196
11060.000000	63.774	-137.9607
11200.000000	64.893	-144.1169
11380.000000	65.634	-151.3510
11500.000000	65.829	-154.8837
11720.000000	65.886	-158.1957
11800.000000	65.880	-158.4843
12060.000000	66.010	-157.2212
12200.000000	66.241	-155.8885
12410.000000	66.838	-154.4387
12500.000000	67.153	-154.4681
12650.000000	67.648	-155.7500
12800.000000	67.988	-158.2900
13150.000000	68.097	-165.3255
13200.000000	68.060	-166.2799
13400.000000	67.827	-170.1131
13600.000000	67.414	-174.0477
13800.000000	66.787	-177.3218
14000.000000	66.057	-179.2774
14300.000000	65.203	179.5863
14500.000000	64.987	177.7827
14750.000000	64.915	170.6217
15000.000000	64.206	155.5847
15250.000000	61.530	144.2839
15500.000000	57.084	155.1475
15750.000000	53.734	-179.5837
16000.000000	53.518	-150.7498
16250.000000	56.420	-123.6975
16500.000000	60.853	-106.2572
16750.000000	65.288	-102.6386
17000.000000	68.585	-114.8060
17250.000000	69.935	-138.2785
17500.000000	69.446	-160.2675
17750.000000	67.836	-174.2993
18000.000000	65.593	179.5256
18250.000000	62.975	-178.1431
18500.000000	60.593	-168.5081
18750.000000	59.181	-155.7359
19000.000000	58.938	-144.1939
19250.000000	59.397	-137.6253
19500.000000	59.786	-137.3360
19750.000000	59.708	-140.7839
