* Measurement data measured by REW V5.20.13
* Source: Headset (KM-HIFI-384KHZ), MICROPHONE (Master Volume), L, volume: 0.250
* Format: 256k Log Swept Sine, 1 sweep at -13.0 dBFS with no timing reference
* Dated: Jul 19, 2023 3:37:33 AM
* REW Settings:
*  C-weighting compensation: Off
*  Target level: 75.0 dB
* Note: ; 
* Measurement: HD580 (Black Silk) L
* Smoothing: 1/24 octave
* Frequency Step: 1/48 octave
* Start Frequency: 20.000 Hz
*
* Freq(Hz)	SPL(dB)	Phase(degrees)
20.000000	79.625	-64.9540
20.299999	79.796	-65.3608
20.600000	79.986	-65.8469
20.900000	80.179	-66.4580
21.200001	80.361	-67.1747
21.400000	80.473	-67.6716
21.799999	80.677	-68.6404
22.000000	80.772	-69.0859
22.400000	80.959	-69.8894
22.700001	81.103	-70.4611
23.000000	81.251	-71.0675
23.299999	81.393	-71.7392
23.600000	81.522	-72.4611
24.000000	81.668	-73.4183
24.299999	81.760	-74.0409
24.700001	81.880	-74.6702
25.000000	81.985	-75.0194
25.400000	82.160	-75.4602
25.799999	82.365	-76.0732
26.200001	82.570	-76.9577
26.500000	82.706	-77.7510
26.900000	82.856	-78.8435
27.200001	82.950	-79.5936
27.600000	83.065	-80.4459
28.000000	83.182	-81.1661
28.500000	83.332	-81.9717
29.000000	83.475	-82.6408
29.500000	83.622	-83.0505
30.000000	83.811	-83.2509
30.400000	84.002	-83.4608
30.700001	84.159	-83.7555
31.100000	84.364	-84.3781
31.500000	84.540	-85.1921
32.000000	84.710	-86.2515
32.500000	84.845	-87.1414
33.000000	84.979	-87.8397
33.500000	85.132	-88.5010
34.000000	85.293	-89.2988
34.500000	85.436	-90.2678
35.000000	85.546	-91.2814
35.500000	85.628	-92.1481
36.000000	85.711	-92.7919
36.500000	85.819	-93.3127
37.000000	85.950	-93.8878
37.500000	86.087	-94.6002
38.200001	86.255	-95.7485
38.700001	86.354	-96.5889
39.500000	86.470	-97.8336
40.000000	86.522	-98.4392
40.599998	86.591	-98.9417
41.200001	86.688	-99.3647
41.799999	86.801	-99.9075
42.500000	86.922	-100.6765
43.099998	87.020	-101.3215
43.700001	87.129	-101.9995
44.400002	87.253	-102.9491
45.000000	87.338	-103.8031
45.500000	87.400	-104.4099
46.200001	87.502	-105.0968
46.799999	87.609	-105.6719
47.500000	87.736	-106.3647
48.200001	87.869	-106.9752
48.700001	87.980	-107.4279
49.400002	88.135	-108.3071
50.000000	88.221	-109.2253
50.799999	88.265	-110.1313
51.500000	88.319	-110.4684
52.200001	88.425	-110.8395
53.000000	88.545	-111.6603
53.799999	88.613	-112.5603
54.500000	88.664	-113.1506
55.200001	88.741	-113.6815
56.000000	88.850	-114.4698
57.000000	88.961	-115.6487
58.000000	89.061	-116.6718
59.000000	89.180	-117.7250
60.000000	89.273	-118.8555
60.799999	89.336	-119.6116
61.500000	89.401	-120.2390
62.200001	89.461	-120.9142
63.000000	89.512	-121.6620
64.000000	89.567	-122.4540
65.000000	89.625	-123.1533
66.000000	89.693	-123.7969
67.000000	89.775	-124.5345
68.000000	89.843	-125.4268
69.000000	89.892	-126.3397
70.000000	89.928	-127.2698
71.000000	89.947	-128.1757
72.000000	89.955	-128.9890
73.000000	89.956	-129.6987
74.000000	89.956	-130.2329
75.000000	89.972	-130.6235
76.199997	90.013	-130.9839
77.500000	90.096	-131.3420
78.800003	90.198	-131.9045
80.000000	90.279	-132.5551
81.199997	90.350	-133.2443
82.500000	90.414	-134.0336
83.800003	90.465	-134.8197
85.000000	90.508	-135.5237
86.199997	90.554	-136.2477
87.500000	90.606	-137.1505
88.500000	90.636	-137.9334
90.000000	90.664	-139.1313
91.199997	90.674	-140.1365
92.500000	90.655	-141.2036
93.800003	90.610	-142.0934
95.000000	90.553	-142.7283
96.199997	90.490	-143.1805
97.500000	90.420	-143.4684
98.800003	90.365	-143.5085
100.000000	90.355	-143.4265
101.500000	90.391	-143.4224
103.000000	90.449	-143.5579
104.400002	90.503	-143.8082
106.000000	90.539	-144.1749
107.500000	90.555	-144.5253
109.000000	90.562	-144.9464
110.599998	90.565	-145.3926
112.000000	90.585	-145.7324
113.800003	90.635	-146.2307
115.000000	90.662	-146.6066
117.199997	90.690	-147.2469
118.000000	90.695	-147.4979
120.599998	90.685	-148.3352
122.000000	90.675	-148.7135
124.099998	90.667	-149.1339
125.000000	90.669	-149.2668
126.500000	90.678	-149.4899
128.000000	90.684	-149.7640
131.500000	90.686	-150.3748
132.000000	90.688	-150.4553
134.000000	90.703	-150.7853
136.000000	90.718	-151.1451
138.000000	90.722	-151.4780
140.000000	90.727	-151.7089
143.000000	90.762	-152.0404
145.000000	90.787	-152.4083
147.500000	90.793	-152.9171
150.000000	90.781	-153.3967
152.500000	90.757	-153.7185
155.000000	90.761	-153.8047
157.500000	90.795	-154.0325
160.000000	90.790	-154.4404
162.500000	90.774	-154.7373
165.000000	90.774	-155.0499
167.500000	90.764	-155.3629
170.000000	90.749	-155.5370
172.500000	90.753	-155.6788
175.000000	90.764	-155.8657
177.500000	90.774	-156.0472
180.000000	90.784	-156.2518
182.500000	90.789	-156.4742
185.000000	90.791	-156.7108
187.500000	90.788	-156.9548
190.000000	90.787	-157.1934
192.500000	90.787	-157.4252
195.000000	90.783	-157.6195
197.500000	90.777	-157.7997
200.000000	90.767	-157.9904
203.000000	90.754	-158.1930
206.000000	90.746	-158.3495
209.000000	90.737	-158.4650
212.000000	90.732	-158.5706
214.000000	90.730	-158.6519
218.000000	90.724	-158.7716
220.000000	90.721	-158.8226
224.000000	90.717	-158.9822
227.000000	90.711	-159.1377
230.000000	90.705	-159.2698
233.000000	90.694	-159.3531
236.000000	90.673	-159.3972
240.000000	90.647	-159.5028
243.000000	90.638	-159.5775
247.000000	90.640	-159.5546
250.000000	90.646	-159.5251
254.000000	90.652	-159.5640
258.000000	90.641	-159.7120
262.000000	90.634	-159.8696
265.000000	90.639	-159.9530
269.000000	90.642	-159.9116
272.000000	90.636	-159.8110
276.000000	90.622	-159.7533
280.000000	90.611	-159.7993
285.000000	90.590	-159.8961
290.000000	90.570	-159.8175
295.000000	90.568	-159.7042
300.000000	90.568	-159.6082
304.000000	90.562	-159.4729
307.000000	90.557	-159.3879
311.000000	90.550	-159.3229
315.000000	90.542	-159.2820
320.000000	90.539	-159.1752
325.000000	90.548	-159.0410
330.000000	90.555	-158.9478
335.000000	90.556	-158.8520
340.000000	90.560	-158.7068
345.000000	90.563	-158.5488
350.000000	90.565	-158.3696
355.000000	90.573	-158.1883
360.000000	90.588	-158.0587
365.000000	90.602	-157.9448
370.000000	90.612	-157.8401
375.000000	90.621	-157.7524
382.000000	90.635	-157.6077
387.000000	90.644	-157.4609
395.000000	90.652	-157.2289
400.000000	90.660	-157.1154
406.000000	90.674	-156.9799
412.000000	90.689	-156.8862
418.000000	90.703	-156.7911
425.000000	90.713	-156.6432
431.000000	90.719	-156.4797
437.000000	90.727	-156.2970
444.000000	90.730	-156.0809
450.000000	90.730	-155.8979
455.000000	90.738	-155.7145
462.000000	90.755	-155.4269
468.000000	90.768	-155.1942
475.000000	90.777	-154.9160
482.000000	90.792	-154.6135
487.000000	90.805	-154.4272
494.000000	90.824	-154.1785
500.000000	90.847	-153.9131
508.000000	90.891	-153.5266
515.000000	90.916	-153.2553
522.000000	90.938	-153.0388
530.000000	90.970	-152.7852
538.000000	91.003	-152.4875
545.000000	91.035	-152.2287
552.000000	91.070	-151.9773
560.000000	91.111	-151.7083
570.000000	91.163	-151.4514
580.000000	91.212	-151.1826
590.000000	91.263	-150.8875
600.000000	91.315	-150.6670
608.000000	91.351	-150.5088
615.000000	91.382	-150.3433
622.000000	91.417	-150.1553
630.000000	91.459	-149.9750
640.000000	91.505	-149.8083
650.000000	91.546	-149.6550
660.000000	91.585	-149.4897
670.000000	91.620	-149.3190
680.000000	91.654	-149.1191
690.000000	91.687	-148.8824
700.000000	91.732	-148.6210
710.000000	91.789	-148.3821
720.000000	91.849	-148.2263
730.000000	91.906	-148.1964
740.000000	91.954	-148.2950
750.000000	91.984	-148.4966
762.000000	91.984	-148.8423
775.000000	91.915	-149.2640
788.000000	91.745	-149.2445
800.000000	91.546	-148.1517
812.000000	91.470	-146.1602
825.000000	91.581	-144.0626
838.000000	91.791	-142.7238
850.000000	91.983	-142.1396
862.000000	92.130	-141.8618
875.000000	92.252	-141.6660
885.000000	92.331	-141.5477
900.000000	92.431	-141.2955
912.000000	92.508	-141.0355
925.000000	92.597	-140.7877
938.000000	92.682	-140.5834
950.000000	92.751	-140.4122
962.000000	92.814	-140.2167
975.000000	92.882	-139.9975
988.000000	92.946	-139.7666
1000.000000	93.005	-139.5062
1015.000000	93.083	-139.1636
1030.000000	93.157	-138.7397
1044.000000	93.235	-138.2688
1060.000000	93.337	-137.7922
1075.000000	93.437	-137.4774
1090.000000	93.536	-137.1857
1106.000000	93.646	-136.8794
1120.000000	93.734	-136.6436
1138.000000	93.831	-136.2964
1150.000000	93.900	-136.0060
1172.000000	94.039	-135.3826
1180.000000	94.095	-135.1124
1206.000000	94.345	-134.3292
1220.000000	94.501	-134.1763
1241.000000	94.709	-134.2380
1250.000000	94.786	-134.3242
1265.000000	94.899	-134.5035
1280.000000	95.001	-134.6321
1315.000000	95.241	-134.8258
1320.000000	95.272	-134.8686
1340.000000	95.393	-134.9818
1360.000000	95.533	-135.2490
1380.000000	95.633	-135.6402
1400.000000	95.722	-135.7926
1430.000000	95.867	-136.1843
1450.000000	95.958	-136.4376
1475.000000	96.066	-136.9649
1500.000000	96.085	-137.5295
1525.000000	96.091	-137.6672
1550.000000	96.078	-137.6442
1575.000000	96.079	-137.1943
1600.000000	96.122	-136.4525
1625.000000	96.247	-135.7740
1650.000000	96.374	-135.5641
1675.000000	96.470	-135.2924
1700.000000	96.562	-134.9814
1725.000000	96.656	-134.5790
1750.000000	96.761	-134.0332
1775.000000	96.920	-133.3170
1800.000000	97.138	-132.8325
1825.000000	97.382	-132.8477
1850.000000	97.576	-133.4963
1875.000000	97.672	-134.2873
1900.000000	97.693	-134.8446
1925.000000	97.671	-134.8868
1950.000000	97.671	-134.2894
1975.000000	97.750	-133.3811
2000.000000	97.912	-132.6191
2030.000000	98.143	-132.3216
2060.000000	98.309	-132.5085
2090.000000	98.402	-132.4908
2120.000000	98.491	-132.0239
2140.000000	98.567	-131.5587
2180.000000	98.781	-130.3059
2200.000000	98.936	-129.6572
2240.000000	99.319	-128.7950
2270.000000	99.610	-128.7108
2300.000000	99.823	-128.8137
2330.000000	100.005	-128.3898
2360.000000	100.271	-127.4389
2400.000000	100.823	-126.6055
2430.000000	101.261	-126.8937
2470.000000	101.782	-127.9367
2500.000000	102.133	-128.9685
2540.000000	102.546	-130.5015
2580.000000	102.927	-131.9998
2620.000000	103.312	-133.4403
2650.000000	103.621	-134.6218
2690.000000	104.042	-136.5435
2720.000000	104.359	-138.2984
2760.000000	104.729	-141.3290
2800.000000	104.938	-144.6124
2850.000000	105.095	-147.6869
2900.000000	105.362	-150.1935
2950.000000	105.702	-153.4540
3000.000000	105.958	-157.6912
3040.000000	106.032	-161.3185
3070.000000	106.019	-163.7862
3110.000000	105.978	-166.5453
3150.000000	105.975	-169.0591
3200.000000	105.984	-172.4477
3250.000000	105.941	-175.9792
3300.000000	105.859	-179.4283
3350.000000	105.745	177.0635
3400.000000	105.580	173.5499
3450.000000	105.360	170.0782
3500.000000	105.079	166.7543
3550.000000	104.761	163.6494
3600.000000	104.412	160.4698
3650.000000	103.960	157.2211
3700.000000	103.376	154.4572
3750.000000	102.701	152.4850
3820.000000	101.650	151.1069
3870.000000	100.832	151.3108
3950.000000	99.444	154.6122
4000.000000	98.638	159.3560
4060.000000	98.081	167.4619
4120.000000	98.169	175.8625
4180.000000	98.736	-177.1615
4250.000000	99.771	-171.5060
4310.000000	100.815	-169.2584
4370.000000	101.825	-169.4462
4440.000000	102.851	-172.0330
4500.000000	103.530	-175.8684
4550.000000	103.905	-179.6739
4620.000000	104.188	175.1494
4680.000000	104.294	171.1882
4750.000000	104.329	167.1313
4820.000000	104.316	163.5815
4870.000000	104.293	161.2860
4940.000000	104.248	158.3396
5000.000000	104.219	156.0457
5080.000000	104.202	153.0001
5150.000000	104.184	150.3839
5220.000000	104.192	147.9540
5300.000000	104.295	145.1165
5380.000000	104.509	141.6104
5450.000000	104.749	137.4344
5520.000000	104.952	131.8074
5600.000000	104.988	123.6135
5700.000000	104.541	111.9754
5800.000000	103.494	101.1804
5900.000000	102.007	93.0972
6000.000000	100.322	87.9717
6080.000000	98.943	85.6292
6150.000000	97.746	84.6334
6220.000000	96.574	84.5345
6300.000000	95.282	85.4274
6400.000000	93.779	87.7338
6500.000000	92.418	90.8732
6600.000000	91.163	94.5327
6700.000000	89.966	98.6230
6800.000000	88.802	103.5018
6900.000000	87.695	109.3734
7000.000000	86.668	116.3056
7100.000000	85.749	124.6417
7200.000000	85.066	134.2884
7300.000000	84.748	144.6808
7400.000000	84.840	154.7033
7500.000000	85.213	163.3326
7620.000000	85.796	172.1400
7750.000000	86.702	-178.9568
7880.000000	88.094	-172.2914
8000.000000	89.447	-170.4143
8120.000000	90.492	-172.1425
8250.000000	91.160	-175.7265
8380.000000	91.471	-178.8365
8500.000000	91.653	179.4453
8620.000000	91.936	178.2566
8750.000000	92.410	175.9784
8850.000000	92.783	172.6587
9000.000000	93.066	164.6627
9120.000000	92.816	156.2816
9250.000000	91.879	147.6123
9380.000000	90.288	142.4755
9500.000000	88.450	142.8159
9620.000000	86.647	148.0975
9750.000000	85.207	156.5695
9880.000000	84.276	165.4932
10000.000000	83.661	173.9288
10150.000000	83.089	-174.6459
10300.000000	82.830	-160.9785
10440.000000	83.242	-146.1347
10600.000000	84.994	-128.7080
10750.000000	88.028	-115.1128
10900.000000	91.730	-109.2220
11060.000000	94.990	-117.6332
11200.000000	96.217	-136.4247
11380.000000	95.372	-157.6130
11500.000000	94.077	-162.8477
11720.000000	92.259	-161.1055
11800.000000	91.911	-158.9724
12060.000000	91.802	-149.1579
12200.000000	92.674	-143.2358
12410.000000	95.073	-139.7040
12500.000000	96.158	-141.8300
12650.000000	97.606	-150.6476
12800.000000	98.313	-164.3062
13150.000000	96.792	167.0975
13200.000000	96.355	164.9088
13400.000000	94.622	160.1556
13600.000000	93.213	159.2713
13800.000000	92.246	160.2307
14000.000000	91.774	161.5003
14300.000000	91.976	160.4821
14500.000000	92.540	154.6228
14750.000000	93.003	136.3730
15000.000000	91.896	104.8391
15250.000000	88.197	68.4488
15500.000000	81.998	22.5269
15750.000000	76.670	-39.5876
16000.000000	79.467	-80.0367
16250.000000	83.284	-94.6119
16500.000000	86.221	-103.4830
16750.000000	88.503	-114.1641
17000.000000	90.009	-130.1577
17250.000000	90.036	-150.5503
17500.000000	88.398	-165.1064
17750.000000	86.010	-169.0773
18000.000000	83.865	-166.7533
18250.000000	82.205	-161.3906
18500.000000	81.027	-153.9995
18750.000000	80.445	-145.0596
19000.000000	80.696	-136.4731
19250.000000	81.493	-131.8579
19500.000000	82.080	-131.8855
19750.000000	82.257	-133.3928
