* Measurement data measured by REW V5.20.13
* Source: Headset (KM-HIFI-384KHZ), MICROPHONE (Master Volume), L, volume: 0.250
* Format: 256k Log Swept Sine, 1 sweep at -13.0 dBFS with no timing reference
* Dated: Jul 19, 2023 3:47:55 AM
* REW Settings:
*  C-weighting compensation: Off
*  Target level: 75.0 dB
* Note: ; 
* Measurement: HD600 (Silver Screen) L
* Smoothing: 1/24 octave
* Frequency Step: 1/48 octave
* Start Frequency: 20.000 Hz
*
* Freq(Hz)	SPL(dB)	Phase(degrees)
20.000000	86.092	-88.0412
20.299999	86.229	-88.7839
20.600000	86.356	-89.5564
20.900000	86.473	-90.3217
21.200001	86.581	-91.0417
21.400000	86.652	-91.4891
21.799999	86.795	-92.3235
22.000000	86.869	-92.7249
22.400000	87.020	-93.5329
22.700001	87.133	-94.1581
23.000000	87.242	-94.7953
23.299999	87.346	-95.4269
23.600000	87.446	-96.0388
24.000000	87.574	-96.8123
24.299999	87.670	-97.3632
24.700001	87.796	-98.0703
25.000000	87.890	-98.5868
25.400000	88.015	-99.2603
25.799999	88.138	-99.9190
26.200001	88.261	-100.5700
26.500000	88.352	-101.0586
26.900000	88.470	-101.7131
27.200001	88.556	-102.2034
27.600000	88.667	-102.8498
28.000000	88.774	-103.4833
28.500000	88.903	-104.2601
29.000000	89.028	-105.0259
29.500000	89.147	-105.7736
30.000000	89.261	-106.4905
30.400000	89.352	-107.0431
30.700001	89.421	-107.4525
31.100000	89.514	-108.0066
31.500000	89.606	-108.5852
32.000000	89.716	-109.3547
32.500000	89.813	-110.1511
33.000000	89.894	-110.9002
33.500000	89.970	-111.5340
34.000000	90.058	-112.0713
34.500000	90.165	-112.6403
35.000000	90.277	-113.3593
35.500000	90.367	-114.2033
36.000000	90.427	-114.9969
36.500000	90.473	-115.5840
37.000000	90.536	-115.9814
37.500000	90.632	-116.3582
38.200001	90.791	-117.1263
38.700001	90.895	-117.8507
39.500000	91.030	-119.1109
40.000000	91.096	-119.9042
40.599998	91.156	-120.8098
41.200001	91.202	-121.5720
41.799999	91.255	-122.1772
42.500000	91.338	-122.8227
43.099998	91.415	-123.3963
43.700001	91.495	-123.9387
44.400002	91.598	-124.5432
45.000000	91.688	-125.1196
45.500000	91.754	-125.6149
46.200001	91.834	-126.2153
46.799999	91.909	-126.7008
47.500000	91.980	-127.3981
48.200001	91.999	-127.9701
48.700001	92.013	-128.0908
49.400002	92.105	-128.1311
50.000000	92.232	-128.6155
50.799999	92.329	-129.9707
51.500000	92.317	-131.0317
52.200001	92.306	-131.6606
53.000000	92.345	-132.3102
53.799999	92.397	-133.0977
54.500000	92.444	-133.7664
55.200001	92.496	-134.4045
56.000000	92.560	-135.0978
57.000000	92.648	-135.9156
58.000000	92.728	-136.7915
59.000000	92.785	-137.6357
60.000000	92.829	-138.5021
60.799999	92.844	-139.1902
61.500000	92.852	-139.7081
62.200001	92.870	-140.1930
63.000000	92.897	-140.7791
64.000000	92.937	-141.5130
65.000000	92.989	-142.2879
66.000000	93.027	-143.1703
67.000000	93.034	-143.9762
68.000000	93.029	-144.6022
69.000000	93.030	-145.1113
70.000000	93.042	-145.6608
71.000000	93.042	-146.3261
72.000000	93.020	-146.9122
73.000000	93.003	-147.3211
74.000000	93.004	-147.6435
75.000000	93.020	-147.9235
76.199997	93.054	-148.2297
77.500000	93.105	-148.5699
78.800003	93.167	-149.0408
80.000000	93.216	-149.6333
81.199997	93.253	-150.2971
82.500000	93.286	-151.0364
83.800003	93.319	-151.7932
85.000000	93.350	-152.5313
86.199997	93.371	-153.3670
87.500000	93.365	-154.3254
88.500000	93.341	-155.0453
90.000000	93.276	-156.1097
91.199997	93.186	-156.8705
92.500000	93.052	-157.3934
93.800003	92.906	-157.4088
95.000000	92.801	-156.9640
96.199997	92.760	-156.2616
97.500000	92.794	-155.5505
98.800003	92.880	-155.1568
100.000000	92.971	-155.1193
101.500000	93.071	-155.3445
103.000000	93.158	-155.6818
104.400002	93.229	-156.0857
106.000000	93.288	-156.6154
107.500000	93.324	-157.1497
109.000000	93.345	-157.7515
110.599998	93.345	-158.4538
112.000000	93.327	-158.9766
113.800003	93.315	-159.4128
115.000000	93.322	-159.6424
117.199997	93.345	-160.0207
118.000000	93.355	-160.1662
120.599998	93.381	-160.8264
122.000000	93.375	-161.3133
124.099998	93.336	-161.9515
125.000000	93.315	-162.1455
126.500000	93.284	-162.3448
128.000000	93.269	-162.4101
131.500000	93.292	-162.7971
132.000000	93.293	-162.9020
134.000000	93.284	-163.2988
136.000000	93.279	-163.5675
138.000000	93.291	-163.7647
140.000000	93.306	-163.9989
143.000000	93.305	-164.4862
145.000000	93.307	-164.8058
147.500000	93.325	-165.2517
150.000000	93.319	-165.5963
152.500000	93.299	-165.8454
155.000000	93.283	-166.2330
157.500000	93.273	-166.7046
160.000000	93.265	-167.0777
162.500000	93.254	-167.3613
165.000000	93.241	-167.7240
167.500000	93.209	-168.1379
170.000000	93.165	-168.4027
172.500000	93.130	-168.5132
175.000000	93.107	-168.5964
177.500000	93.087	-168.6622
180.000000	93.073	-168.7385
182.500000	93.064	-168.8655
185.000000	93.061	-169.0214
187.500000	93.058	-169.1866
190.000000	93.052	-169.3363
192.500000	93.045	-169.4875
195.000000	93.034	-169.6544
197.500000	93.023	-169.8299
200.000000	93.015	-170.0021
203.000000	93.008	-170.2141
206.000000	92.992	-170.4116
209.000000	92.970	-170.5930
212.000000	92.949	-170.7868
214.000000	92.934	-170.9052
218.000000	92.901	-171.1642
220.000000	92.884	-171.3046
224.000000	92.852	-171.4878
227.000000	92.823	-171.5499
230.000000	92.792	-171.6349
233.000000	92.768	-171.7369
236.000000	92.743	-171.7994
240.000000	92.702	-171.7779
243.000000	92.676	-171.7545
247.000000	92.650	-171.7344
250.000000	92.633	-171.7541
254.000000	92.609	-171.8100
258.000000	92.585	-171.7890
262.000000	92.559	-171.7162
265.000000	92.543	-171.7081
269.000000	92.527	-171.7562
272.000000	92.516	-171.7507
276.000000	92.502	-171.7158
280.000000	92.486	-171.7192
285.000000	92.462	-171.7001
290.000000	92.432	-171.5874
295.000000	92.399	-171.5348
300.000000	92.369	-171.4617
304.000000	92.348	-171.4126
307.000000	92.338	-171.3753
311.000000	92.330	-171.2912
315.000000	92.318	-171.1646
320.000000	92.298	-171.0217
325.000000	92.285	-170.9387
330.000000	92.268	-170.8573
335.000000	92.245	-170.7450
340.000000	92.227	-170.5989
345.000000	92.214	-170.4447
350.000000	92.199	-170.2892
355.000000	92.184	-170.1277
360.000000	92.173	-169.9924
365.000000	92.159	-169.8756
370.000000	92.146	-169.7184
375.000000	92.141	-169.5232
382.000000	92.147	-169.2815
387.000000	92.146	-169.1333
395.000000	92.141	-168.9518
400.000000	92.141	-168.8351
406.000000	92.138	-168.6809
412.000000	92.135	-168.5132
418.000000	92.131	-168.3526
425.000000	92.119	-168.1476
431.000000	92.109	-167.9640
437.000000	92.109	-167.8053
444.000000	92.105	-167.6373
450.000000	92.096	-167.4530
455.000000	92.092	-167.2876
462.000000	92.093	-167.0745
468.000000	92.096	-166.9222
475.000000	92.092	-166.7457
482.000000	92.087	-166.5173
487.000000	92.086	-166.3456
494.000000	92.083	-166.1087
500.000000	92.078	-165.8694
508.000000	92.076	-165.5189
515.000000	92.079	-165.2482
522.000000	92.083	-164.9945
530.000000	92.092	-164.7115
538.000000	92.102	-164.4184
545.000000	92.109	-164.1340
552.000000	92.116	-163.8351
560.000000	92.125	-163.5245
570.000000	92.143	-163.1671
580.000000	92.167	-162.8109
590.000000	92.197	-162.5065
600.000000	92.228	-162.2401
608.000000	92.241	-161.9816
615.000000	92.248	-161.7459
622.000000	92.259	-161.5321
630.000000	92.275	-161.3204
640.000000	92.295	-161.0543
650.000000	92.313	-160.7807
660.000000	92.327	-160.4728
670.000000	92.335	-160.1204
680.000000	92.342	-159.7289
690.000000	92.361	-159.3037
700.000000	92.389	-158.8695
710.000000	92.429	-158.4632
720.000000	92.477	-158.1051
730.000000	92.530	-157.7926
740.000000	92.582	-157.5517
750.000000	92.634	-157.3748
762.000000	92.691	-157.1796
775.000000	92.736	-157.0225
788.000000	92.763	-156.8988
800.000000	92.783	-156.6816
812.000000	92.818	-156.4202
825.000000	92.861	-156.1914
838.000000	92.911	-156.0488
850.000000	92.949	-156.1218
862.000000	92.953	-156.3430
875.000000	92.897	-156.5930
885.000000	92.801	-156.5862
900.000000	92.615	-155.6882
912.000000	92.542	-154.1923
925.000000	92.597	-152.5116
938.000000	92.734	-151.3566
950.000000	92.873	-150.7610
962.000000	92.994	-150.4290
975.000000	93.095	-150.1951
988.000000	93.169	-150.0221
1000.000000	93.219	-149.8133
1015.000000	93.271	-149.4679
1030.000000	93.317	-149.0686
1044.000000	93.355	-148.6143
1060.000000	93.404	-147.9638
1075.000000	93.463	-147.2460
1090.000000	93.543	-146.4701
1106.000000	93.660	-145.6964
1120.000000	93.780	-145.1442
1138.000000	93.944	-144.5466
1150.000000	94.061	-144.1847
1172.000000	94.289	-143.7870
1180.000000	94.366	-143.7298
1206.000000	94.598	-143.7084
1220.000000	94.709	-143.7862
1241.000000	94.860	-143.9028
1250.000000	94.923	-143.9654
1265.000000	95.021	-144.1238
1280.000000	95.106	-144.2992
1315.000000	95.278	-144.6473
1320.000000	95.301	-144.7002
1340.000000	95.378	-144.8919
1360.000000	95.463	-144.9272
1380.000000	95.549	-145.1150
1400.000000	95.609	-145.3092
1430.000000	95.691	-145.4825
1450.000000	95.733	-145.5164
1475.000000	95.818	-145.3870
1500.000000	95.908	-145.5519
1525.000000	95.955	-145.7232
1550.000000	95.985	-145.8005
1575.000000	95.997	-145.6882
1600.000000	96.014	-145.2743
1625.000000	96.076	-144.6912
1650.000000	96.176	-144.2382
1675.000000	96.284	-143.9553
1700.000000	96.382	-143.8477
1725.000000	96.444	-143.6854
1750.000000	96.504	-143.3504
1775.000000	96.564	-142.8462
1800.000000	96.670	-142.1099
1825.000000	96.839	-141.4830
1850.000000	97.035	-141.1790
1875.000000	97.230	-141.2632
1900.000000	97.380	-141.6634
1925.000000	97.483	-142.0631
1950.000000	97.555	-142.3270
1975.000000	97.623	-142.3805
2000.000000	97.703	-142.3820
2030.000000	97.803	-142.3591
2060.000000	97.908	-142.4176
2090.000000	97.992	-142.5565
2120.000000	98.046	-142.6198
2140.000000	98.072	-142.5698
2180.000000	98.082	-142.2273
2200.000000	98.073	-141.7041
2240.000000	98.131	-139.7673
2270.000000	98.347	-137.9018
2300.000000	98.693	-136.7473
2330.000000	99.035	-136.4146
2360.000000	99.319	-136.4940
2400.000000	99.629	-136.4823
2430.000000	99.871	-136.2537
2470.000000	100.267	-135.7894
2500.000000	100.628	-135.6562
2540.000000	101.172	-136.1167
2580.000000	101.713	-137.5412
2620.000000	102.166	-139.8395
2650.000000	102.420	-141.7667
2690.000000	102.689	-144.2195
2720.000000	102.864	-146.0027
2760.000000	103.066	-148.3418
2800.000000	103.243	-150.7416
2850.000000	103.382	-153.9218
2900.000000	103.399	-156.7361
2950.000000	103.375	-158.7084
3000.000000	103.421	-159.9085
3040.000000	103.567	-160.8500
3070.000000	103.713	-161.8979
3110.000000	103.888	-163.7597
3150.000000	104.022	-165.8568
3200.000000	104.148	-168.6330
3250.000000	104.231	-171.5282
3300.000000	104.282	-174.5879
3350.000000	104.266	-177.8736
3400.000000	104.164	178.9728
3450.000000	104.022	176.1149
3500.000000	103.862	173.3191
3550.000000	103.646	170.4749
3600.000000	103.341	168.0127
3650.000000	103.013	166.2425
3700.000000	102.730	164.8298
3750.000000	102.477	163.3658
3820.000000	102.085	161.2476
3870.000000	101.761	159.9229
3950.000000	101.188	158.3500
4000.000000	100.810	157.7787
4060.000000	100.355	157.4838
4120.000000	99.883	157.5416
4180.000000	99.366	158.2404
4250.000000	98.768	160.4633
4310.000000	98.368	163.6356
4370.000000	98.180	167.6877
4440.000000	98.327	172.4049
4500.000000	98.705	175.3482
4550.000000	99.087	176.6942
4620.000000	99.603	177.2132
4680.000000	100.009	176.7328
4750.000000	100.391	175.2146
4820.000000	100.633	173.2982
4870.000000	100.758	172.0394
4940.000000	100.921	170.3270
5000.000000	101.046	168.6850
5080.000000	101.152	166.2910
5150.000000	101.196	164.2443
5220.000000	101.226	162.2825
5300.000000	101.250	160.0193
5380.000000	101.268	157.7404
5450.000000	101.294	155.6548
5520.000000	101.331	153.3443
5600.000000	101.385	150.1926
5700.000000	101.396	144.9052
5800.000000	101.140	138.1830
5900.000000	100.463	131.5490
6000.000000	99.443	126.8596
6080.000000	98.534	124.7864
6150.000000	97.737	123.9437
6220.000000	96.953	123.8370
6300.000000	96.083	124.5735
6400.000000	95.078	126.6776
6500.000000	94.217	129.7447
6600.000000	93.507	133.1748
6700.000000	92.881	136.7707
6800.000000	92.319	140.7888
6900.000000	91.826	145.3027
7000.000000	91.402	150.5062
7100.000000	91.133	156.5994
7200.000000	91.138	163.2511
7300.000000	91.475	169.5484
7400.000000	92.069	174.6196
7500.000000	92.825	178.1398
7620.000000	93.798	179.8322
7750.000000	94.669	178.7267
7880.000000	95.249	176.2598
8000.000000	95.621	173.8786
8120.000000	95.940	171.6257
8250.000000	96.327	168.8581
8380.000000	96.727	164.6597
8500.000000	96.953	159.0392
8620.000000	96.882	152.3787
8750.000000	96.446	145.5920
8850.000000	95.968	141.1649
9000.000000	95.132	134.9057
9120.000000	94.248	130.0651
9250.000000	92.993	126.2169
9380.000000	91.533	124.7185
9500.000000	90.143	125.2038
9620.000000	88.755	126.9235
9750.000000	87.180	130.3887
9880.000000	85.466	136.8716
10000.000000	83.862	146.8705
10150.000000	82.396	165.1935
10300.000000	82.485	-173.4433
10440.000000	83.982	-156.1681
10600.000000	86.374	-143.1421
10750.000000	88.729	-137.2240
10900.000000	91.032	-136.5806
11060.000000	93.125	-142.3840
11200.000000	94.198	-152.7745
11380.000000	94.174	-166.9056
11500.000000	93.526	-172.2731
11720.000000	92.292	-173.0650
11800.000000	92.033	-171.7492
12060.000000	91.982	-165.9273
12200.000000	92.453	-162.5830
12410.000000	94.093	-159.3125
12500.000000	95.048	-160.2760
12650.000000	96.466	-167.2587
12800.000000	97.216	179.9784
13150.000000	95.877	147.9548
13200.000000	95.403	144.6072
13400.000000	93.073	135.9671
13600.000000	90.425	135.1768
13800.000000	88.089	140.6458
14000.000000	86.700	148.4136
14300.000000	86.206	154.5123
14500.000000	86.119	152.4511
14750.000000	85.665	138.2951
15000.000000	83.674	98.0889
15250.000000	79.865	21.5177
15500.000000	80.876	-52.7970
15750.000000	84.729	-86.6552
16000.000000	87.594	-101.5588
16250.000000	89.505	-113.0911
16500.000000	90.765	-123.2092
16750.000000	91.746	-132.2026
17000.000000	92.640	-142.0936
17250.000000	93.256	-155.9604
17500.000000	93.003	-174.1733
17750.000000	91.499	168.4090
18000.000000	88.833	157.5224
18250.000000	85.290	156.8971
18500.000000	81.211	170.4817
18750.000000	77.873	-160.1843
19000.000000	78.677	-127.3224
19250.000000	81.937	-108.0790
19500.000000	84.741	-105.0593
19750.000000	86.541	-110.9471
