* Measurement data measured by REW V5.20.13
* Source: C:\Users\starf\Downloads\KossxDropPortaProXTed L.txt
* Format: Comma/Tab/Space delimited data
* Dated: Aug 12, 2023 5:29:58 PM
* REW Settings:
*  C-weighting compensation: Off
*  Target level: 75.0 dB
* Note: ; Measurement imported from C:\Users\starf\Downloads\KossxDropPortaProXTed L.txt Format: Comma/Tab/Space delimited data 480 values loaded, 20 Hz to 19,753 Hz log spaced 
* Measurement: KossxDropPortaProXTed L
* Smoothing: 1/24 octave
* Frequency Step: 1/48 octave
* Start Frequency: 20.000 Hz
*
* Freq(Hz)	SPL(dB)	Phase(degrees)
20.000000	74.571	-23.6460
20.299999	74.730	-24.3876
20.600000	74.933	-25.2870
20.900000	75.139	-26.0842
21.200001	75.352	-26.8017
21.400000	75.496	-27.2735
21.799999	75.773	-28.2247
22.000000	75.898	-28.6659
22.400000	76.127	-29.3182
22.700001	76.304	-29.4815
23.000000	76.519	-29.3788
23.299999	76.796	-29.1952
23.600000	77.134	-29.2169
24.000000	77.622	-29.9721
24.299999	77.952	-31.1766
24.700001	78.273	-33.3671
25.000000	78.407	-35.0527
25.400000	78.473	-36.8170
25.799999	78.496	-37.7307
26.200001	78.555	-37.9425
26.500000	78.652	-37.9208
26.900000	78.839	-38.0009
27.200001	78.994	-38.2467
27.600000	79.193	-38.7677
28.000000	79.377	-39.3573
28.500000	79.603	-40.0829
29.000000	79.838	-40.8806
29.500000	80.066	-41.8292
30.000000	80.271	-42.8279
30.400000	80.423	-43.5560
30.700001	80.537	-44.0398
31.100000	80.697	-44.6304
31.500000	80.866	-45.2079
32.000000	81.085	-45.9490
32.500000	81.307	-46.7066
33.000000	81.532	-47.4833
33.500000	81.758	-48.3032
34.000000	81.976	-49.1587
34.500000	82.184	-49.9945
35.000000	82.390	-50.7729
35.500000	82.601	-51.5278
36.000000	82.813	-52.3215
36.500000	83.016	-53.1587
37.000000	83.206	-53.9776
37.500000	83.390	-54.7313
38.200001	83.649	-55.7250
38.700001	83.828	-56.4277
39.500000	84.104	-57.4380
40.000000	84.289	-57.9678
40.599998	84.539	-58.6834
41.200001	84.789	-59.7088
41.799999	84.994	-60.9773
42.500000	85.169	-62.3722
43.099998	85.304	-63.3184
43.700001	85.452	-64.1355
44.400002	85.640	-65.1091
45.000000	85.801	-65.9851
45.500000	85.935	-66.7322
46.200001	86.120	-67.8036
46.799999	86.272	-68.7342
47.500000	86.444	-69.7938
48.200001	86.614	-70.8142
48.700001	86.736	-71.5357
49.400002	86.903	-72.5496
50.000000	87.041	-73.4096
50.799999	87.221	-74.4983
51.500000	87.383	-75.3854
52.200001	87.555	-76.2682
53.000000	87.754	-77.3422
53.799999	87.944	-78.4554
54.500000	88.101	-79.4100
55.200001	88.252	-80.3319
56.000000	88.418	-81.3276
57.000000	88.627	-82.4791
58.000000	88.853	-83.6852
59.000000	89.075	-85.1841
60.000000	89.251	-86.9229
60.799999	89.358	-88.2683
61.500000	89.450	-89.3467
62.200001	89.548	-90.3884
63.000000	89.666	-91.5979
64.000000	89.813	-93.1365
65.000000	89.953	-94.6671
66.000000	90.086	-96.1991
67.000000	90.200	-97.7519
68.000000	90.289	-99.2880
69.000000	90.352	-100.7535
70.000000	90.396	-102.1003
71.000000	90.429	-103.2645
72.000000	90.472	-104.2194
73.000000	90.540	-105.0450
74.000000	90.633	-105.8803
75.000000	90.733	-106.7958
76.199997	90.846	-107.9929
77.500000	90.949	-109.3812
78.800003	91.024	-110.7905
80.000000	91.073	-112.0322
81.199997	91.115	-113.1494
82.500000	91.165	-114.1973
83.800003	91.231	-115.1305
85.000000	91.302	-115.9550
86.199997	91.381	-116.7835
87.500000	91.469	-117.7125
88.500000	91.538	-118.4654
90.000000	91.639	-119.6607
91.199997	91.716	-120.6449
92.500000	91.797	-121.7119
93.800003	91.877	-122.7897
95.000000	91.947	-123.8068
96.199997	92.010	-124.8434
97.500000	92.068	-125.9780
98.800003	92.115	-127.1076
100.000000	92.148	-128.1296
101.500000	92.180	-129.3587
103.000000	92.207	-130.5205
104.400002	92.231	-131.5521
106.000000	92.259	-132.6945
107.500000	92.282	-133.7325
109.000000	92.300	-134.7254
110.599998	92.315	-135.7389
112.000000	92.324	-136.6004
113.800003	92.333	-137.6861
115.000000	92.339	-138.3994
117.199997	92.349	-139.6742
118.000000	92.353	-140.1205
120.599998	92.368	-141.4887
122.000000	92.380	-142.1880
124.099998	92.396	-143.2437
125.000000	92.399	-143.7013
126.500000	92.402	-144.4604
128.000000	92.400	-145.2036
131.500000	92.392	-146.8567
132.000000	92.390	-147.0818
134.000000	92.380	-147.9492
136.000000	92.368	-148.7704
138.000000	92.355	-149.5610
140.000000	92.344	-150.3306
143.000000	92.329	-151.4377
145.000000	92.320	-152.1482
147.500000	92.308	-153.0174
150.000000	92.295	-153.8728
152.500000	92.281	-154.7119
155.000000	92.266	-155.5271
157.500000	92.251	-156.3120
160.000000	92.233	-157.0768
162.500000	92.213	-157.8186
165.000000	92.195	-158.5258
167.500000	92.182	-159.2085
170.000000	92.167	-159.8869
172.500000	92.147	-160.5691
175.000000	92.125	-161.2421
177.500000	92.108	-161.9037
180.000000	92.091	-162.5752
182.500000	92.070	-163.2690
185.000000	92.043	-163.9792
187.500000	92.015	-164.7028
190.000000	91.982	-165.4481
192.500000	91.939	-166.2212
195.000000	91.880	-166.9916
197.500000	91.802	-167.7099
200.000000	91.708	-168.3244
203.000000	91.587	-168.8799
206.000000	91.474	-169.2444
209.000000	91.372	-169.4675
212.000000	91.283	-169.6071
214.000000	91.232	-169.6773
218.000000	91.142	-169.7661
220.000000	91.100	-169.7797
224.000000	91.028	-169.7793
227.000000	90.987	-169.7863
230.000000	90.960	-169.8063
233.000000	90.944	-169.8228
236.000000	90.935	-169.8177
240.000000	90.922	-169.8905
243.000000	90.907	-170.0962
247.000000	90.885	-170.4371
250.000000	90.868	-170.6459
254.000000	90.845	-170.8892
258.000000	90.823	-171.1430
262.000000	90.801	-171.4143
265.000000	90.781	-171.6213
269.000000	90.749	-171.8879
272.000000	90.724	-172.0777
276.000000	90.693	-172.3231
280.000000	90.663	-172.5643
285.000000	90.619	-172.8530
290.000000	90.568	-173.1062
295.000000	90.517	-173.3164
300.000000	90.470	-173.4919
304.000000	90.436	-173.6198
307.000000	90.412	-173.7134
311.000000	90.380	-173.8327
315.000000	90.345	-173.9495
320.000000	90.299	-174.0953
325.000000	90.250	-174.2220
330.000000	90.200	-174.3148
335.000000	90.146	-174.3588
340.000000	90.094	-174.3669
345.000000	90.054	-174.3801
350.000000	90.022	-174.4330
355.000000	89.985	-174.5124
360.000000	89.949	-174.5208
365.000000	89.926	-174.4120
370.000000	89.910	-174.3121
375.000000	89.889	-174.2860
382.000000	89.858	-174.2877
387.000000	89.838	-174.3179
395.000000	89.797	-174.4370
400.000000	89.762	-174.5508
406.000000	89.711	-174.7150
412.000000	89.642	-174.8771
418.000000	89.549	-174.9652
425.000000	89.414	-174.8155
431.000000	89.301	-174.3569
437.000000	89.221	-173.6550
444.000000	89.185	-172.7792
450.000000	89.191	-172.1387
455.000000	89.210	-171.7221
462.000000	89.240	-171.3102
468.000000	89.262	-171.0754
475.000000	89.280	-170.8706
482.000000	89.291	-170.6940
487.000000	89.296	-170.5766
494.000000	89.299	-170.4175
500.000000	89.299	-170.2715
508.000000	89.300	-170.0595
515.000000	89.301	-169.8808
522.000000	89.303	-169.7130
530.000000	89.304	-169.5260
538.000000	89.305	-169.3402
545.000000	89.304	-169.1797
552.000000	89.302	-169.0171
560.000000	89.301	-168.8264
570.000000	89.302	-168.5821
580.000000	89.302	-168.3229
590.000000	89.289	-168.0609
600.000000	89.274	-167.8207
608.000000	89.276	-167.6102
615.000000	89.283	-167.4106
622.000000	89.287	-167.2022
630.000000	89.287	-166.9498
640.000000	89.285	-166.6201
650.000000	89.289	-166.2860
660.000000	89.297	-165.9648
670.000000	89.308	-165.6548
680.000000	89.319	-165.3382
690.000000	89.332	-165.0177
700.000000	89.344	-164.7016
710.000000	89.355	-164.3810
720.000000	89.368	-164.0662
730.000000	89.386	-163.7818
740.000000	89.405	-163.4960
750.000000	89.425	-163.1880
762.000000	89.450	-162.8107
775.000000	89.480	-162.4110
788.000000	89.513	-162.0288
800.000000	89.546	-161.6973
812.000000	89.581	-161.3712
825.000000	89.618	-161.0257
838.000000	89.653	-160.7167
850.000000	89.685	-160.4575
862.000000	89.714	-160.1936
875.000000	89.742	-159.8792
885.000000	89.765	-159.6221
900.000000	89.801	-159.2386
912.000000	89.831	-158.9406
925.000000	89.866	-158.6246
938.000000	89.899	-158.3089
950.000000	89.929	-158.0015
962.000000	89.960	-157.6801
975.000000	89.997	-157.3393
988.000000	90.035	-157.0156
1000.000000	90.070	-156.7242
1015.000000	90.110	-156.3590
1030.000000	90.147	-155.9760
1044.000000	90.179	-155.5806
1060.000000	90.217	-155.0729
1075.000000	90.261	-154.5631
1090.000000	90.311	-154.0400
1106.000000	90.372	-153.4733
1120.000000	90.432	-152.9779
1138.000000	90.516	-152.3568
1150.000000	90.575	-151.9542
1172.000000	90.688	-151.2353
1180.000000	90.732	-150.9794
1206.000000	90.882	-150.1758
1220.000000	90.967	-149.7721
1241.000000	91.100	-149.2025
1250.000000	91.158	-148.9720
1265.000000	91.256	-148.6048
1280.000000	91.355	-148.2396
1315.000000	91.600	-147.3628
1320.000000	91.638	-147.2466
1340.000000	91.793	-146.8307
1360.000000	91.949	-146.4808
1380.000000	92.104	-146.1645
1400.000000	92.264	-145.8722
1430.000000	92.510	-145.5179
1450.000000	92.675	-145.3316
1475.000000	92.883	-145.1143
1500.000000	93.104	-144.9425
1525.000000	93.331	-144.8921
1550.000000	93.559	-144.9643
1575.000000	93.784	-145.1916
1600.000000	93.982	-145.5455
1625.000000	94.147	-145.7933
1650.000000	94.318	-145.7717
1675.000000	94.534	-145.6335
1700.000000	94.794	-145.6007
1725.000000	95.077	-145.8164
1750.000000	95.353	-146.2627
1775.000000	95.622	-146.8337
1800.000000	95.894	-147.5333
1825.000000	96.166	-148.4184
1850.000000	96.431	-149.5075
1875.000000	96.681	-150.7662
1900.000000	96.915	-152.1703
1925.000000	97.130	-153.7339
1950.000000	97.314	-155.4289
1975.000000	97.467	-157.1507
2000.000000	97.604	-158.8690
2030.000000	97.748	-161.0714
2060.000000	97.835	-163.3969
2090.000000	97.862	-165.5192
2120.000000	97.877	-167.3324
2140.000000	97.894	-168.5088
2180.000000	97.908	-170.9770
2200.000000	97.892	-172.1051
2240.000000	97.864	-174.0654
2270.000000	97.854	-175.5724
2300.000000	97.836	-177.1181
2330.000000	97.807	-178.6831
2360.000000	97.757	179.7292
2400.000000	97.654	177.7256
2430.000000	97.560	176.3698
2470.000000	97.423	174.7549
2500.000000	97.321	173.6807
2540.000000	97.190	172.3495
2580.000000	97.058	171.0953
2620.000000	96.934	169.9344
2650.000000	96.841	169.0237
2690.000000	96.695	167.8057
2720.000000	96.573	166.9975
2760.000000	96.400	166.0870
2800.000000	96.233	165.4091
2850.000000	96.062	164.7165
2900.000000	95.901	164.0241
2950.000000	95.771	163.4793
3000.000000	95.681	162.7616
3040.000000	95.610	161.9565
3070.000000	95.541	161.2894
3110.000000	95.434	160.4577
3150.000000	95.335	159.6194
3200.000000	95.205	158.3763
3250.000000	95.040	157.0471
3300.000000	94.850	155.6807
3350.000000	94.634	154.1673
3400.000000	94.343	152.4165
3450.000000	93.902	151.0403
3500.000000	93.378	150.8735
3550.000000	92.923	151.7889
3600.000000	92.620	153.1027
3650.000000	92.461	154.0333
3700.000000	92.338	154.0879
3750.000000	92.120	153.6261
3820.000000	91.638	153.4800
3870.000000	91.255	154.1194
3950.000000	90.704	156.1157
4000.000000	90.425	157.5222
4060.000000	90.113	159.0816
4120.000000	89.765	160.7020
4180.000000	89.369	162.6924
4250.000000	88.833	165.8459
4310.000000	88.307	169.9112
4370.000000	87.806	176.3386
4440.000000	87.716	-172.5430
4500.000000	88.565	-161.8024
4550.000000	89.872	-154.5096
4620.000000	91.979	-149.4734
4680.000000	93.610	-150.2701
4750.000000	95.086	-155.7089
4820.000000	96.061	-163.7383
4870.000000	96.465	-170.0149
4940.000000	96.684	-178.5314
5000.000000	96.611	175.0264
5080.000000	96.244	168.2746
5150.000000	95.796	164.4130
5220.000000	95.380	162.3566
5300.000000	95.111	161.2931
5380.000000	95.111	160.2287
5450.000000	95.252	158.4538
5520.000000	95.420	155.6178
5600.000000	95.549	151.1799
5700.000000	95.531	144.2558
5800.000000	95.238	136.2332
5900.000000	94.582	127.8433
6000.000000	93.511	120.3227
6080.000000	92.365	115.9498
6150.000000	91.202	113.8884
6220.000000	89.969	113.5875
6300.000000	88.590	115.0869
6400.000000	87.020	118.8979
6500.000000	85.615	124.5731
6600.000000	84.412	132.5861
6700.000000	83.655	142.4905
6800.000000	83.541	152.4210
6900.000000	83.933	160.3859
7000.000000	84.481	165.5640
7100.000000	84.938	168.6897
7200.000000	85.272	170.9911
7300.000000	85.539	173.1141
7400.000000	85.780	175.2973
7500.000000	86.049	177.7915
7620.000000	86.581	-178.7327
7750.000000	87.599	-175.9842
7880.000000	88.735	-177.5534
8000.000000	89.347	177.0227
8120.000000	89.387	170.8874
8250.000000	89.015	166.3829
8380.000000	88.550	164.5686
8500.000000	88.269	164.4098
8620.000000	88.244	164.3633
8750.000000	88.432	162.6156
8850.000000	88.532	159.3149
9000.000000	88.300	151.9708
9120.000000	87.656	145.7300
9250.000000	86.459	140.7913
9380.000000	84.830	139.8781
9500.000000	83.192	143.3202
9620.000000	81.792	149.6183
9750.000000	80.808	157.2532
9880.000000	80.275	164.0205
10000.000000	79.938	169.3345
10150.000000	79.530	175.9590
10300.000000	79.291	-175.8514
10440.000000	79.676	-167.3189
10600.000000	80.868	-160.9420
10750.000000	81.925	-162.0664
10900.000000	82.264	-168.7337
11060.000000	81.665	-176.5818
11200.000000	80.384	-179.3957
11380.000000	77.963	-171.4621
11500.000000	76.672	-157.2927
11720.000000	77.823	-124.5519
11800.000000	79.047	-116.1236
12060.000000	83.006	-106.5148
12200.000000	84.678	-108.0762
12410.000000	86.803	-114.0111
12500.000000	87.623	-117.3763
12650.000000	88.828	-124.3003
12800.000000	89.761	-132.8260
13150.000000	91.042	-156.2258
13200.000000	91.134	-159.8793
13400.000000	91.181	-175.5729
13600.000000	90.607	167.5361
13800.000000	89.238	151.8022
14000.000000	86.962	142.3152
14300.000000	82.111	151.0183
14500.000000	79.489	172.0157
14750.000000	79.808	-165.8981
15000.000000	81.062	-162.6851
15250.000000	81.214	-167.6707
15500.000000	80.524	-170.7268
15750.000000	79.571	-170.1464
16000.000000	78.714	-167.7178
16250.000000	77.987	-164.8563
16500.000000	77.342	-161.6465
16750.000000	76.849	-158.2252
17000.000000	76.565	-155.4529
17250.000000	76.397	-154.0703
17500.000000	76.190	-153.8570
17750.000000	75.879	-154.0027
18000.000000	75.486	-154.2237
18250.000000	74.980	-155.0880
18500.000000	74.186	-156.9391
18750.000000	72.907	-159.0056
19000.000000	71.031	-159.9360
19250.000000	68.529	-158.7022
19500.000000	65.532	-155.6553
19750.000000	62.982	-153.0012
