* Measurement data measured by REW V5.20.13
* Source: Headset (KM-HIFI-384KHZ), MICROPHONE (Master Volume), L, volume: 0.250
* Format: 256k Log Swept Sine, 1 sweep at -13.0 dBFS with no timing reference
* Dated: Jul 19, 2023 2:20:46 AM
* REW Settings:
*  C-weighting compensation: Off
*  Target level: 75.0 dB
* Note: ; 
* Measurement: KSC75 L
* Smoothing: 1/24 octave
* Frequency Step: 1/48 octave
* Start Frequency: 20.000 Hz
*
* Freq(Hz)	SPL(dB)	Phase(degrees)
20.000000	71.946	-22.1471
20.299999	72.193	-22.7024
20.600000	72.421	-23.4223
20.900000	72.617	-24.2307
21.200001	72.781	-25.0090
21.400000	72.878	-25.4522
21.799999	73.059	-26.1245
22.000000	73.154	-26.3640
22.400000	73.370	-26.7484
22.700001	73.554	-27.0770
23.000000	73.749	-27.5378
23.299999	73.937	-28.1441
23.600000	74.109	-28.8478
24.000000	74.307	-29.8058
24.299999	74.439	-30.4338
24.700001	74.612	-31.0933
25.000000	74.755	-31.4956
25.400000	74.967	-32.0287
25.799999	75.190	-32.6741
26.200001	75.404	-33.4315
26.500000	75.551	-34.0057
26.900000	75.735	-34.6895
27.200001	75.872	-35.1183
27.600000	76.064	-35.6180
28.000000	76.265	-36.1251
28.500000	76.513	-36.8312
29.000000	76.741	-37.5255
29.500000	76.961	-38.1024
30.000000	77.193	-38.6246
30.400000	77.384	-39.1118
30.700001	77.523	-39.5431
31.100000	77.691	-40.1657
31.500000	77.842	-40.7673
32.000000	78.019	-41.4115
32.500000	78.201	-41.9686
33.000000	78.391	-42.5304
33.500000	78.583	-43.1211
34.000000	78.781	-43.7255
34.500000	78.988	-44.3897
35.000000	79.196	-45.1920
35.500000	79.383	-46.1057
36.000000	79.542	-46.9638
36.500000	79.692	-47.6265
37.000000	79.861	-48.1405
37.500000	80.049	-48.6767
38.200001	80.305	-49.5816
38.700001	80.464	-50.1843
39.500000	80.724	-50.8614
40.000000	80.907	-51.2685
40.599998	81.123	-51.8943
41.200001	81.316	-52.5638
41.799999	81.498	-53.1389
42.500000	81.722	-53.7669
43.099998	81.919	-54.4113
43.700001	82.103	-55.1469
44.400002	82.298	-56.0161
45.000000	82.452	-56.6871
45.500000	82.582	-57.1510
46.200001	82.786	-57.7090
46.799999	82.982	-58.2692
47.500000	83.196	-59.0825
48.200001	83.383	-59.8045
48.700001	83.524	-60.1886
49.400002	83.751	-60.7700
50.000000	83.943	-61.4886
50.799999	84.149	-62.5533
51.500000	84.308	-63.3353
52.200001	84.472	-64.0760
53.000000	84.651	-64.9881
53.799999	84.821	-65.8577
54.500000	84.979	-66.6195
55.200001	85.138	-67.4774
56.000000	85.303	-68.4960
57.000000	85.504	-69.6284
58.000000	85.730	-70.7378
59.000000	85.947	-72.0602
60.000000	86.119	-73.3039
60.799999	86.264	-74.1275
61.500000	86.399	-74.9188
62.200001	86.516	-75.7901
63.000000	86.627	-76.6833
64.000000	86.773	-77.6465
65.000000	86.919	-78.6318
66.000000	87.054	-79.5389
67.000000	87.190	-80.3954
68.000000	87.317	-81.2138
69.000000	87.441	-81.9200
70.000000	87.577	-82.5668
71.000000	87.725	-83.2982
72.000000	87.863	-84.1400
73.000000	87.988	-84.9714
74.000000	88.115	-85.7619
75.000000	88.247	-86.5386
76.199997	88.413	-87.4709
77.500000	88.592	-88.5250
78.800003	88.766	-89.5719
80.000000	88.927	-90.5744
81.199997	89.079	-91.6523
82.500000	89.231	-92.8335
83.800003	89.380	-94.0191
85.000000	89.511	-95.1355
86.199997	89.633	-96.2141
87.500000	89.760	-97.3627
88.500000	89.847	-98.2486
90.000000	89.955	-99.5142
91.199997	90.029	-100.4547
92.500000	90.105	-101.3842
93.800003	90.185	-102.2350
95.000000	90.269	-102.9648
96.199997	90.366	-103.6923
97.500000	90.477	-104.5288
98.800003	90.589	-105.4244
100.000000	90.688	-106.2998
101.500000	90.803	-107.4755
103.000000	90.899	-108.6901
104.400002	90.975	-109.7586
106.000000	91.059	-110.9030
107.500000	91.134	-111.9259
109.000000	91.210	-112.9020
110.599998	91.294	-113.9783
112.000000	91.359	-114.9562
113.800003	91.430	-116.1775
115.000000	91.474	-116.9546
117.199997	91.549	-118.3388
118.000000	91.573	-118.8296
120.599998	91.648	-120.3687
122.000000	91.690	-121.1952
124.099998	91.748	-122.4349
125.000000	91.771	-122.9522
126.500000	91.806	-123.7927
128.000000	91.837	-124.6145
131.500000	91.892	-126.4467
132.000000	91.899	-126.6992
134.000000	91.927	-127.7013
136.000000	91.954	-128.6787
138.000000	91.978	-129.6106
140.000000	92.001	-130.5173
143.000000	92.023	-131.8376
145.000000	92.036	-132.6807
147.500000	92.051	-133.7209
150.000000	92.060	-134.7258
152.500000	92.066	-135.7033
155.000000	92.065	-136.6452
157.500000	92.062	-137.5010
160.000000	92.054	-138.2819
162.500000	92.048	-139.0271
165.000000	92.037	-139.7807
167.500000	92.024	-140.4880
170.000000	92.012	-141.1830
172.500000	91.997	-141.8725
175.000000	91.983	-142.5159
177.500000	91.974	-143.1012
180.000000	91.966	-143.6562
182.500000	91.956	-144.1986
185.000000	91.942	-144.7253
187.500000	91.925	-145.2186
190.000000	91.909	-145.6824
192.500000	91.894	-146.1288
195.000000	91.879	-146.5460
197.500000	91.866	-146.9308
200.000000	91.853	-147.2973
203.000000	91.838	-147.7112
206.000000	91.827	-148.0818
209.000000	91.824	-148.4399
212.000000	91.830	-148.8213
214.000000	91.837	-149.0922
218.000000	91.846	-149.7215
220.000000	91.842	-150.0824
224.000000	91.821	-150.7799
227.000000	91.796	-151.2225
230.000000	91.765	-151.6178
233.000000	91.731	-151.9938
236.000000	91.699	-152.3262
240.000000	91.661	-152.6906
243.000000	91.634	-152.9366
247.000000	91.601	-153.2760
250.000000	91.581	-153.5208
254.000000	91.553	-153.7943
258.000000	91.528	-154.0381
262.000000	91.506	-154.2774
265.000000	91.489	-154.4452
269.000000	91.462	-154.6444
272.000000	91.440	-154.8008
276.000000	91.411	-155.0341
280.000000	91.391	-155.2328
285.000000	91.376	-155.4024
290.000000	91.351	-155.5688
295.000000	91.319	-155.7366
300.000000	91.290	-155.8798
304.000000	91.268	-155.9887
307.000000	91.253	-156.0533
311.000000	91.231	-156.1161
315.000000	91.210	-156.1559
320.000000	91.183	-156.1658
325.000000	91.160	-156.1850
330.000000	91.140	-156.2076
335.000000	91.123	-156.1989
340.000000	91.106	-156.1905
345.000000	91.089	-156.1865
350.000000	91.075	-156.1699
355.000000	91.063	-156.1476
360.000000	91.051	-156.1261
365.000000	91.039	-156.0936
370.000000	91.026	-156.0400
375.000000	91.013	-155.9736
382.000000	90.996	-155.8805
387.000000	90.986	-155.8127
395.000000	90.974	-155.7037
400.000000	90.966	-155.6255
406.000000	90.955	-155.5225
412.000000	90.945	-155.4079
418.000000	90.937	-155.2752
425.000000	90.929	-155.1162
431.000000	90.922	-154.9618
437.000000	90.915	-154.8082
444.000000	90.911	-154.6390
450.000000	90.910	-154.4757
455.000000	90.910	-154.3237
462.000000	90.907	-154.1216
468.000000	90.903	-153.9594
475.000000	90.902	-153.7486
482.000000	90.902	-153.5147
487.000000	90.904	-153.3511
494.000000	90.907	-153.1201
500.000000	90.911	-152.9194
508.000000	90.919	-152.6659
515.000000	90.928	-152.4558
522.000000	90.938	-152.2299
530.000000	90.949	-151.9641
538.000000	90.962	-151.7053
545.000000	90.975	-151.4735
552.000000	90.986	-151.2328
560.000000	90.998	-150.9716
570.000000	91.016	-150.6664
580.000000	91.035	-150.3495
590.000000	91.052	-150.0432
600.000000	91.069	-149.7263
608.000000	91.083	-149.4620
615.000000	91.098	-149.2274
622.000000	91.113	-148.9997
630.000000	91.129	-148.7505
640.000000	91.148	-148.4357
650.000000	91.171	-148.0960
660.000000	91.192	-147.7425
670.000000	91.210	-147.3871
680.000000	91.233	-147.0235
690.000000	91.259	-146.6757
700.000000	91.285	-146.3491
710.000000	91.310	-146.0256
720.000000	91.334	-145.6893
730.000000	91.359	-145.3388
740.000000	91.384	-144.9853
750.000000	91.411	-144.6308
762.000000	91.445	-144.1942
775.000000	91.486	-143.7269
788.000000	91.529	-143.2649
800.000000	91.569	-142.8553
812.000000	91.606	-142.4559
825.000000	91.646	-142.0198
838.000000	91.688	-141.5883
850.000000	91.728	-141.2018
862.000000	91.767	-140.8334
875.000000	91.808	-140.4302
885.000000	91.838	-140.1180
900.000000	91.881	-139.6327
912.000000	91.917	-139.2229
925.000000	91.955	-138.7781
938.000000	91.992	-138.3447
950.000000	92.025	-137.9507
962.000000	92.059	-137.5402
975.000000	92.095	-137.0692
988.000000	92.132	-136.5876
1000.000000	92.169	-136.1376
1015.000000	92.215	-135.5712
1030.000000	92.262	-134.9751
1044.000000	92.308	-134.4047
1060.000000	92.363	-133.7601
1075.000000	92.415	-133.1469
1090.000000	92.473	-132.5091
1106.000000	92.539	-131.8202
1120.000000	92.596	-131.2197
1138.000000	92.670	-130.4492
1150.000000	92.723	-129.9371
1172.000000	92.826	-128.9842
1180.000000	92.866	-128.6426
1206.000000	92.997	-127.5338
1220.000000	93.069	-126.9173
1241.000000	93.182	-125.9876
1250.000000	93.233	-125.6032
1265.000000	93.317	-124.9735
1280.000000	93.404	-124.3270
1315.000000	93.627	-122.7732
1320.000000	93.660	-122.5496
1340.000000	93.801	-121.6676
1360.000000	93.951	-120.8264
1380.000000	94.107	-120.0282
1400.000000	94.268	-119.2843
1430.000000	94.507	-118.2468
1450.000000	94.666	-117.5319
1475.000000	94.881	-116.6598
1500.000000	95.113	-115.8797
1525.000000	95.361	-115.2757
1550.000000	95.593	-114.9743
1575.000000	95.767	-114.8504
1600.000000	95.877	-114.4158
1625.000000	95.995	-113.3827
1650.000000	96.195	-112.0516
1675.000000	96.462	-110.9284
1700.000000	96.750	-110.1115
1725.000000	97.038	-109.5276
1750.000000	97.314	-109.0592
1775.000000	97.585	-108.6098
1800.000000	97.862	-108.1861
1825.000000	98.148	-107.8273
1850.000000	98.437	-107.5560
1875.000000	98.727	-107.3438
1900.000000	99.018	-107.2041
1925.000000	99.308	-107.0971
1950.000000	99.606	-107.0285
1975.000000	99.912	-107.0180
2000.000000	100.228	-107.0948
2030.000000	100.614	-107.3668
2060.000000	100.995	-107.7575
2090.000000	101.371	-108.2191
2120.000000	101.750	-108.7759
2140.000000	102.010	-109.2364
2180.000000	102.542	-110.4107
2200.000000	102.817	-111.2065
2240.000000	103.325	-113.4210
2270.000000	103.627	-115.4053
2300.000000	103.861	-117.3276
2330.000000	104.061	-119.0130
2360.000000	104.254	-120.4959
2400.000000	104.543	-122.2738
2430.000000	104.788	-123.7966
2470.000000	105.094	-126.3378
2500.000000	105.262	-128.4792
2540.000000	105.398	-131.3102
2580.000000	105.444	-133.6879
2620.000000	105.488	-135.3547
2650.000000	105.570	-136.3812
2690.000000	105.738	-137.9242
2720.000000	105.874	-139.3900
2760.000000	106.008	-141.6788
2800.000000	106.072	-143.9846
2850.000000	106.095	-146.5267
2900.000000	106.111	-148.8252
2950.000000	106.099	-151.0665
3000.000000	106.052	-153.0743
3040.000000	106.004	-154.4112
3070.000000	105.978	-155.2738
3110.000000	105.968	-156.3896
3150.000000	105.970	-157.6920
3200.000000	105.907	-159.5797
3250.000000	105.720	-161.0527
3300.000000	105.481	-161.2844
3350.000000	105.365	-160.2069
3400.000000	105.477	-158.7763
3450.000000	105.783	-157.7774
3500.000000	106.219	-157.7064
3550.000000	106.670	-158.8049
3600.000000	107.060	-160.5318
3650.000000	107.470	-162.3803
3700.000000	107.963	-164.9925
3750.000000	108.429	-169.2110
3820.000000	108.694	-177.4675
3870.000000	108.496	176.6240
3950.000000	107.683	170.4557
4000.000000	107.105	169.6307
4060.000000	106.747	171.3987
4120.000000	107.094	173.3290
4180.000000	107.818	171.7253
4250.000000	108.466	165.5769
4310.000000	108.756	158.3173
4370.000000	108.732	149.6426
4440.000000	108.139	139.5389
4500.000000	107.246	133.0768
4550.000000	106.433	129.3763
4620.000000	105.348	125.4902
4680.000000	104.431	122.6995
4750.000000	103.286	120.1877
4820.000000	102.031	119.1444
4870.000000	101.110	119.6387
4940.000000	99.898	121.9775
5000.000000	99.008	125.2332
5080.000000	98.157	130.4737
5150.000000	97.734	134.5898
5220.000000	97.441	137.6573
5300.000000	97.116	140.5709
5380.000000	96.813	143.2318
5450.000000	96.541	145.3665
5520.000000	96.239	147.7170
5600.000000	95.922	151.0324
5700.000000	95.694	155.7819
5800.000000	95.660	160.3282
5900.000000	95.769	164.6850
6000.000000	96.083	168.5056
6080.000000	96.426	170.7974
6150.000000	96.812	172.3853
6220.000000	97.314	173.0731
6300.000000	97.876	171.6371
6400.000000	98.158	167.4301
6500.000000	98.006	163.7319
6600.000000	97.686	161.3929
6700.000000	97.338	159.5222
6800.000000	96.835	157.3811
6900.000000	95.987	156.2577
7000.000000	94.806	158.7949
7100.000000	93.741	166.6447
7200.000000	93.486	177.3623
7300.000000	94.095	-173.0231
7400.000000	95.144	-166.3698
7500.000000	96.330	-162.7155
7620.000000	97.722	-161.8008
7750.000000	99.009	-164.1497
7880.000000	99.971	-168.7460
8000.000000	100.571	-173.5245
8120.000000	101.050	-178.2269
8250.000000	101.494	176.2326
8380.000000	101.796	169.6018
8500.000000	101.849	162.9611
8620.000000	101.722	156.4417
8750.000000	101.434	149.4372
8850.000000	101.092	143.9329
9000.000000	100.290	135.6631
9120.000000	99.316	129.9908
9250.000000	97.947	126.2100
9380.000000	96.379	126.1440
9500.000000	95.029	129.7957
9620.000000	94.136	135.8172
9750.000000	93.882	142.5714
9880.000000	94.247	147.5549
10000.000000	94.935	149.4693
10150.000000	95.886	146.8875
10300.000000	96.462	139.4375
10440.000000	96.625	130.3678
10600.000000	96.412	117.1591
10750.000000	95.510	103.2132
10900.000000	93.947	90.2352
11060.000000	91.714	77.6647
11200.000000	89.278	67.4822
11380.000000	85.349	55.8110
11500.000000	81.944	52.1866
11720.000000	74.099	42.5189
11800.000000	72.607	23.1249
12060.000000	78.733	-79.3671
12200.000000	80.861	-114.2391
12410.000000	81.628	-134.2068
12500.000000	81.786	-134.2612
12650.000000	82.747	-128.8690
12800.000000	84.784	-122.9188
13150.000000	88.305	-139.2319
13200.000000	88.255	-143.7188
13400.000000	86.671	-152.7853
13600.000000	84.727	-138.6370
13800.000000	86.479	-118.0380
14000.000000	89.313	-113.6941
14300.000000	91.793	-127.2261
14500.000000	92.398	-139.9656
14750.000000	91.911	-154.8351
15000.000000	90.392	-162.8666
15250.000000	88.602	-162.4026
15500.000000	87.428	-156.8208
15750.000000	87.046	-150.7786
16000.000000	87.214	-146.2753
16250.000000	87.605	-144.6121
16500.000000	88.031	-145.4762
16750.000000	88.379	-150.1823
17000.000000	87.978	-158.4944
17250.000000	86.382	-161.3378
17500.000000	84.833	-152.4505
17750.000000	85.208	-142.3340
18000.000000	86.192	-140.5769
18250.000000	86.704	-142.5052
18500.000000	87.148	-143.7422
18750.000000	87.787	-146.0429
19000.000000	88.283	-150.9080
19250.000000	88.430	-156.6802
19500.000000	88.362	-161.9655
19750.000000	88.231	-166.9086
