* Measurement data measured by REW V5.20.13
* Source: Headset (KM-HIFI-384KHZ), MICROPHONE (Master Volume), R, volume: 0.250
* Format: 256k Log Swept Sine, 1 sweep at -13.0 dBFS with no timing reference
* Dated: Jul 19, 2023 2:55:46 AM
* REW Settings:
*  C-weighting compensation: Off
*  Target level: 75.0 dB
* Note: ; 
* Measurement: Maxwell R
* Smoothing: 1/24 octave
* Frequency Step: 1/48 octave
* Start Frequency: 20.000 Hz
*
* Freq(Hz)	SPL(dB)	Phase(degrees)
20.000000	90.579	-41.0220
20.299999	90.719	-43.1655
20.600000	90.848	-45.2532
20.900000	90.969	-47.2721
21.200001	91.088	-49.2307
21.400000	91.168	-50.5253
21.799999	91.325	-53.1329
22.000000	91.398	-54.4589
22.400000	91.521	-57.1410
22.700001	91.586	-59.1070
23.000000	91.630	-60.9384
23.299999	91.664	-62.5721
23.600000	91.703	-64.0080
24.000000	91.785	-65.7070
24.299999	91.874	-66.9562
24.700001	92.017	-68.7593
25.000000	92.122	-70.2656
25.400000	92.236	-72.4222
25.799999	92.309	-74.5726
26.200001	92.352	-76.5492
26.500000	92.379	-77.8893
26.900000	92.422	-79.5441
27.200001	92.460	-80.7579
27.600000	92.510	-82.4059
28.000000	92.542	-84.0646
28.500000	92.544	-85.9658
29.000000	92.528	-87.4455
29.500000	92.538	-88.4802
30.000000	92.609	-89.2880
30.400000	92.707	-89.9471
30.700001	92.798	-90.5016
31.100000	92.934	-91.3383
31.500000	93.082	-92.2866
32.000000	93.279	-93.6459
32.500000	93.482	-95.2512
33.000000	93.671	-97.1398
33.500000	93.829	-99.2734
34.000000	93.942	-101.5405
34.500000	94.009	-103.8098
35.000000	94.039	-105.9875
35.500000	94.043	-108.0272
36.000000	94.032	-109.9332
36.500000	94.012	-111.7360
37.000000	93.984	-113.4685
37.500000	93.947	-115.1481
38.200001	93.878	-117.4159
38.700001	93.812	-118.9657
39.500000	93.679	-121.2620
40.000000	93.583	-122.5447
40.599998	93.462	-123.9240
41.200001	93.339	-125.1482
41.799999	93.214	-126.2104
42.500000	93.071	-127.2083
43.099998	92.959	-127.8452
43.700001	92.867	-128.2798
44.400002	92.799	-128.5773
45.000000	92.786	-128.8097
45.500000	92.796	-129.1267
46.200001	92.809	-129.8214
46.799999	92.792	-130.5948
47.500000	92.710	-131.5594
48.200001	92.541	-132.1608
48.700001	92.403	-132.0513
49.400002	92.303	-131.2744
50.000000	92.342	-130.7988
50.799999	92.418	-131.1770
51.500000	92.391	-131.7773
52.200001	92.343	-131.9260
53.000000	92.361	-131.8452
53.799999	92.434	-131.9028
54.500000	92.527	-131.9894
55.200001	92.655	-132.1577
56.000000	92.825	-132.5640
57.000000	93.051	-133.3403
58.000000	93.278	-134.4822
59.000000	93.481	-136.0067
60.000000	93.649	-137.9646
60.799999	93.731	-139.8451
61.500000	93.755	-141.6001
62.200001	93.738	-143.3841
63.000000	93.665	-145.3896
64.000000	93.494	-147.6233
65.000000	93.267	-149.3508
66.000000	93.016	-150.5733
67.000000	92.756	-151.3561
68.000000	92.497	-151.7522
69.000000	92.244	-151.7769
70.000000	92.006	-151.4263
71.000000	91.803	-150.7023
72.000000	91.655	-149.6981
73.000000	91.570	-148.5472
74.000000	91.546	-147.3512
75.000000	91.580	-146.2167
76.199997	91.683	-145.0751
77.500000	91.841	-144.2217
78.800003	92.018	-143.7509
80.000000	92.190	-143.5920
81.199997	92.365	-143.7078
82.500000	92.541	-144.1282
83.800003	92.695	-144.7461
85.000000	92.821	-145.4282
86.199997	92.930	-146.1943
87.500000	93.030	-147.0984
88.500000	93.092	-147.8443
90.000000	93.153	-148.9945
91.199997	93.179	-149.8943
92.500000	93.185	-150.8377
93.800003	93.171	-151.7119
95.000000	93.145	-152.4349
96.199997	93.112	-153.0698
97.500000	93.070	-153.6480
98.800003	93.028	-154.1122
100.000000	92.993	-154.4391
101.500000	92.963	-154.7719
103.000000	92.949	-155.1138
104.400002	92.939	-155.5087
106.000000	92.912	-156.0338
107.500000	92.856	-156.5148
109.000000	92.767	-156.8262
110.599998	92.654	-156.8138
112.000000	92.564	-156.4724
113.800003	92.502	-155.6414
115.000000	92.513	-154.9590
117.199997	92.647	-153.8479
118.000000	92.724	-153.5735
120.599998	93.008	-153.3316
122.000000	93.158	-153.5805
124.099998	93.354	-154.3292
125.000000	93.424	-154.7385
126.500000	93.529	-155.4926
128.000000	93.616	-156.3221
131.500000	93.743	-158.4273
132.000000	93.751	-158.7286
134.000000	93.767	-159.9088
136.000000	93.751	-161.0177
138.000000	93.708	-161.9557
140.000000	93.655	-162.6506
143.000000	93.602	-163.3383
145.000000	93.603	-163.7797
147.500000	93.625	-164.5420
150.000000	93.633	-165.5348
152.500000	93.604	-166.5993
155.000000	93.542	-167.6116
157.500000	93.459	-168.5206
160.000000	93.365	-169.3371
162.500000	93.261	-170.0654
165.000000	93.149	-170.6816
167.500000	93.027	-171.1837
170.000000	92.901	-171.5491
172.500000	92.773	-171.7900
175.000000	92.648	-171.9025
177.500000	92.532	-171.8906
180.000000	92.430	-171.7784
182.500000	92.340	-171.6152
185.000000	92.266	-171.4478
187.500000	92.204	-171.3307
190.000000	92.143	-171.2389
192.500000	92.084	-171.1526
195.000000	92.021	-171.0618
197.500000	91.959	-170.9366
200.000000	91.900	-170.7950
203.000000	91.828	-170.6176
206.000000	91.758	-170.3965
209.000000	91.693	-170.1542
212.000000	91.626	-169.9018
214.000000	91.579	-169.7043
218.000000	91.490	-169.2424
220.000000	91.447	-168.9948
224.000000	91.357	-168.4277
227.000000	91.295	-167.8911
230.000000	91.246	-167.2752
233.000000	91.209	-166.6299
236.000000	91.181	-165.9906
240.000000	91.152	-165.1141
243.000000	91.141	-164.3978
247.000000	91.148	-163.4020
250.000000	91.170	-162.6859
254.000000	91.209	-161.7754
258.000000	91.259	-160.8819
262.000000	91.322	-160.0308
265.000000	91.378	-159.4420
269.000000	91.463	-158.7448
272.000000	91.534	-158.3005
276.000000	91.641	-157.8139
280.000000	91.765	-157.4164
285.000000	91.933	-157.0022
290.000000	92.100	-156.6870
295.000000	92.263	-156.5685
300.000000	92.430	-156.6322
304.000000	92.557	-156.7574
307.000000	92.648	-156.9136
311.000000	92.765	-157.2158
315.000000	92.874	-157.6005
320.000000	92.995	-158.1881
325.000000	93.097	-158.8630
330.000000	93.177	-159.5972
335.000000	93.237	-160.3839
340.000000	93.275	-161.2014
345.000000	93.287	-162.0155
350.000000	93.273	-162.7941
355.000000	93.235	-163.5028
360.000000	93.176	-164.0819
365.000000	93.102	-164.4891
370.000000	93.020	-164.7266
375.000000	92.936	-164.8064
382.000000	92.829	-164.6597
387.000000	92.770	-164.3897
395.000000	92.713	-163.7808
400.000000	92.700	-163.3761
406.000000	92.703	-162.9128
412.000000	92.724	-162.4834
418.000000	92.765	-162.1164
425.000000	92.827	-161.8495
431.000000	92.875	-161.7817
437.000000	92.910	-161.7918
444.000000	92.934	-161.8215
450.000000	92.943	-161.8144
455.000000	92.946	-161.7648
462.000000	92.949	-161.6229
468.000000	92.956	-161.4407
475.000000	92.973	-161.1836
482.000000	93.000	-160.9057
487.000000	93.025	-160.7092
494.000000	93.066	-160.4614
500.000000	93.104	-160.2733
508.000000	93.156	-160.0255
515.000000	93.207	-159.8152
522.000000	93.264	-159.6236
530.000000	93.338	-159.4387
538.000000	93.421	-159.3082
545.000000	93.499	-159.2452
552.000000	93.579	-159.2365
560.000000	93.671	-159.3019
570.000000	93.788	-159.4681
580.000000	93.907	-159.7209
590.000000	94.027	-160.0884
600.000000	94.144	-160.5717
608.000000	94.234	-161.0576
615.000000	94.308	-161.5624
622.000000	94.377	-162.1381
630.000000	94.451	-162.8851
640.000000	94.533	-163.9774
650.000000	94.599	-165.2827
660.000000	94.636	-166.8406
670.000000	94.627	-168.6638
680.000000	94.551	-170.6997
690.000000	94.383	-172.8325
700.000000	94.101	-174.8229
710.000000	93.700	-176.3235
720.000000	93.203	-176.9346
730.000000	92.675	-176.4009
740.000000	92.197	-174.8165
750.000000	91.825	-172.5428
762.000000	91.538	-169.4104
775.000000	91.400	-165.9905
788.000000	91.401	-162.8469
800.000000	91.487	-160.3003
812.000000	91.628	-158.0959
825.000000	91.819	-156.0738
838.000000	92.035	-154.4238
850.000000	92.249	-153.2221
862.000000	92.469	-152.3195
875.000000	92.703	-151.6652
885.000000	92.872	-151.3563
900.000000	93.103	-151.0949
912.000000	93.275	-150.9918
925.000000	93.453	-150.9807
938.000000	93.620	-151.0681
950.000000	93.765	-151.2397
962.000000	93.900	-151.5268
975.000000	94.027	-151.9727
988.000000	94.132	-152.5191
1000.000000	94.207	-153.0507
1015.000000	94.281	-153.6762
1030.000000	94.358	-154.2734
1044.000000	94.443	-155.0025
1060.000000	94.512	-156.3556
1075.000000	94.463	-158.0688
1090.000000	94.256	-159.5238
1106.000000	93.942	-160.1683
1120.000000	93.652	-160.1387
1138.000000	93.226	-159.2287
1150.000000	92.932	-157.6748
1172.000000	92.622	-152.9935
1180.000000	92.630	-151.1154
1206.000000	92.991	-146.2259
1220.000000	93.275	-144.6408
1241.000000	93.682	-143.2395
1250.000000	93.845	-142.8447
1265.000000	94.108	-142.3723
1280.000000	94.359	-142.1165
1315.000000	94.873	-142.2308
1320.000000	94.938	-142.3093
1340.000000	95.181	-142.7200
1360.000000	95.409	-143.1990
1380.000000	95.643	-143.8077
1400.000000	95.853	-144.7983
1430.000000	95.971	-146.7456
1450.000000	95.941	-147.2770
1475.000000	96.049	-147.1421
1500.000000	96.291	-147.9819
1525.000000	96.432	-150.1350
1550.000000	96.349	-152.9631
1575.000000	95.977	-155.4491
1600.000000	95.344	-155.9852
1625.000000	94.681	-153.4478
1650.000000	94.330	-148.6313
1675.000000	94.425	-143.6284
1700.000000	94.832	-139.9650
1725.000000	95.320	-138.1063
1750.000000	95.706	-137.3422
1775.000000	96.018	-136.5669
1800.000000	96.377	-135.7384
1825.000000	96.780	-135.4698
1850.000000	97.126	-135.9421
1875.000000	97.346	-136.7057
1900.000000	97.474	-137.0640
1925.000000	97.622	-136.7333
1950.000000	97.871	-136.1345
1975.000000	98.208	-135.8171
2000.000000	98.583	-136.1598
2030.000000	98.968	-137.5808
2060.000000	99.181	-139.2735
2090.000000	99.309	-140.1276
2120.000000	99.520	-140.3805
2140.000000	99.724	-140.6685
2180.000000	100.150	-142.2062
2200.000000	100.305	-143.2780
2240.000000	100.539	-144.8021
2270.000000	100.849	-145.5330
2300.000000	101.268	-147.2643
2330.000000	101.622	-150.3253
2360.000000	101.823	-154.1199
2400.000000	101.901	-159.5778
2430.000000	101.801	-164.3475
2470.000000	101.185	-170.9872
2500.000000	100.222	-173.3741
2540.000000	98.763	-168.6629
2580.000000	98.499	-159.2469
2620.000000	99.294	-153.9191
2650.000000	99.905	-153.3088
2690.000000	100.468	-154.5790
2720.000000	100.713	-155.9504
2760.000000	100.816	-157.3257
2800.000000	100.887	-156.7619
2850.000000	101.510	-155.3687
2900.000000	102.299	-157.5690
2950.000000	102.785	-161.8202
3000.000000	103.042	-166.1991
3040.000000	103.133	-169.4781
3070.000000	103.168	-171.5831
3110.000000	103.253	-174.0634
3150.000000	103.398	-176.8026
3200.000000	103.579	178.8816
3250.000000	103.657	173.5629
3300.000000	103.590	167.5121
3350.000000	103.361	160.5128
3400.000000	102.795	152.0663
3450.000000	101.486	145.0339
3500.000000	99.498	146.5828
3550.000000	98.325	154.9692
3600.000000	98.422	159.1940
3650.000000	98.358	158.0616
3700.000000	97.651	158.5647
3750.000000	97.193	163.9446
3820.000000	97.632	167.1599
3870.000000	97.622	165.6534
3950.000000	96.968	167.2849
4000.000000	96.958	170.7935
4060.000000	97.369	172.2632
4120.000000	97.482	170.6889
4180.000000	97.257	170.5399
4250.000000	97.183	172.0054
4310.000000	97.304	172.6897
4370.000000	97.378	172.0732
4440.000000	97.231	172.0246
4500.000000	97.271	173.2045
4550.000000	97.451	173.2604
4620.000000	97.563	171.8149
4680.000000	97.485	170.6628
4750.000000	97.332	170.2493
4820.000000	97.287	170.3530
4870.000000	97.292	169.9401
4940.000000	97.170	169.2263
5000.000000	97.037	169.4589
5080.000000	97.020	170.2051
5150.000000	97.098	170.3038
5220.000000	97.163	169.8998
5300.000000	97.173	169.4097
5380.000000	97.261	169.5918
5450.000000	97.487	168.9316
5520.000000	97.598	167.2787
5600.000000	97.666	166.0336
5700.000000	97.974	163.7063
5800.000000	98.082	158.8126
5900.000000	97.875	154.6929
6000.000000	97.756	150.7068
6080.000000	97.622	146.4858
6150.000000	97.407	141.9198
6220.000000	96.981	136.4507
6300.000000	95.976	131.5533
6400.000000	94.440	132.0087
6500.000000	93.562	133.0698
6600.000000	92.740	133.4136
6700.000000	91.989	133.4703
6800.000000	91.030	134.3282
6900.000000	90.250	136.6535
7000.000000	89.516	137.8118
7100.000000	88.740	139.5743
7200.000000	87.870	139.9246
7300.000000	86.243	146.5919
7400.000000	85.352	160.8784
7500.000000	85.505	170.5611
7620.000000	86.078	-179.9854
7750.000000	87.370	-173.8253
7880.000000	88.426	-174.6471
8000.000000	88.987	-178.4675
8120.000000	88.843	175.0532
8250.000000	87.708	179.6870
8380.000000	88.107	-173.1531
8500.000000	88.005	-174.3085
8620.000000	88.048	-172.9763
8750.000000	87.869	-174.6072
8850.000000	87.624	-174.5160
9000.000000	86.856	-171.3788
9120.000000	86.871	-156.3550
9250.000000	89.552	-144.5414
9380.000000	91.486	-153.2794
9500.000000	91.500	-168.5230
9620.000000	90.883	179.9247
9750.000000	89.851	169.4136
9880.000000	88.205	161.9629
10000.000000	86.293	158.3727
10150.000000	82.977	165.8646
10300.000000	79.802	-167.1571
10440.000000	80.498	-139.5684
10600.000000	83.887	-121.2437
10750.000000	86.875	-120.0789
10900.000000	88.626	-132.1229
11060.000000	88.552	-149.9951
11200.000000	87.076	-158.9419
11380.000000	84.422	-157.5442
11500.000000	82.649	-148.9893
11720.000000	81.692	-119.2733
11800.000000	82.723	-107.9411
12060.000000	87.696	-89.3005
12200.000000	90.103	-90.6859
12410.000000	92.744	-102.7489
12500.000000	93.470	-110.2222
12650.000000	94.088	-123.9701
12800.000000	93.978	-136.8888
13150.000000	92.155	-152.0706
13200.000000	91.953	-152.7000
13400.000000	91.513	-156.0850
13600.000000	91.000	-161.0798
13800.000000	90.127	-164.5214
14000.000000	89.221	-163.5627
14300.000000	89.268	-159.9521
14500.000000	89.969	-162.9273
14750.000000	90.324	-175.6638
15000.000000	88.902	169.9030
15250.000000	85.890	171.0240
15500.000000	83.939	-176.6206
15750.000000	83.785	-166.7869
16000.000000	84.358	-159.3792
16250.000000	85.611	-154.4254
16500.000000	87.409	-154.0038
16750.000000	89.372	-160.5750
17000.000000	90.765	-176.2926
17250.000000	90.846	162.2017
17500.000000	89.520	144.3802
17750.000000	87.572	134.8139
18000.000000	85.936	130.2147
18250.000000	85.014	125.3959
18500.000000	84.382	115.9182
18750.000000	82.909	105.5762
19000.000000	80.487	104.6819
19250.000000	78.733	111.5844
19500.000000	78.878	117.7520
19750.000000	80.109	117.9417
