* Measurement data measured by REW V5.20.13
* Source: Headset (KM-HIFI-384KHZ), MICROPHONE (Master Volume), L, volume: 0.250
* Format: 256k Log Swept Sine, 1 sweep at -13.0 dBFS with no timing reference
* Dated: Jul 19, 2023 2:24:31 AM
* REW Settings:
*  C-weighting compensation: Off
*  Target level: 75.0 dB
* Note: ; 
* Measurement: Maxwell L
* Smoothing: 1/24 octave
* Frequency Step: 1/48 octave
* Start Frequency: 20.000 Hz
*
* Freq(Hz)	SPL(dB)	Phase(degrees)
20.000000	90.254	-30.0521
20.299999	90.390	-32.2776
20.600000	90.516	-34.3441
20.900000	90.644	-36.2942
21.200001	90.778	-38.1893
21.400000	90.869	-39.4453
21.799999	91.051	-41.9508
22.000000	91.142	-43.2025
22.400000	91.319	-45.7001
22.700001	91.448	-47.5742
23.000000	91.572	-49.4614
23.299999	91.686	-51.3613
23.600000	91.785	-53.2510
24.000000	91.889	-55.6877
24.299999	91.949	-57.3904
24.700001	92.016	-59.4430
25.000000	92.067	-60.8299
25.400000	92.142	-62.5445
25.799999	92.224	-64.2029
26.200001	92.300	-65.8505
26.500000	92.347	-67.0546
26.900000	92.393	-68.5559
27.200001	92.422	-69.5684
27.600000	92.463	-70.7648
28.000000	92.517	-71.8431
28.500000	92.601	-73.1349
29.000000	92.692	-74.3939
29.500000	92.788	-75.5356
30.000000	92.912	-76.5126
30.400000	93.050	-77.2610
30.700001	93.178	-77.8854
31.100000	93.369	-78.9031
31.500000	93.569	-80.1736
32.000000	93.803	-82.0685
32.500000	94.010	-84.1805
33.000000	94.189	-86.4274
33.500000	94.337	-88.7974
34.000000	94.439	-91.2356
34.500000	94.493	-93.5872
35.000000	94.512	-95.7048
35.500000	94.529	-97.5818
36.000000	94.557	-99.3682
36.500000	94.589	-101.2137
37.000000	94.601	-103.1358
37.500000	94.582	-105.0322
38.200001	94.518	-107.4679
38.700001	94.458	-109.0374
39.500000	94.345	-111.3102
40.000000	94.263	-112.5583
40.599998	94.160	-113.8480
41.200001	94.064	-114.9402
41.799999	93.978	-115.9058
42.500000	93.885	-116.9316
43.099998	93.809	-117.7169
43.700001	93.739	-118.4018
44.400002	93.676	-119.1239
45.000000	93.639	-119.7507
45.500000	93.613	-120.3063
46.200001	93.581	-121.1310
46.799999	93.550	-121.8588
47.500000	93.508	-122.6661
48.200001	93.465	-123.3658
48.700001	93.437	-123.8091
49.400002	93.394	-124.3591
50.000000	93.349	-124.6735
50.799999	93.303	-124.7356
51.500000	93.309	-124.6129
52.200001	93.345	-124.5586
53.000000	93.394	-124.5696
53.799999	93.457	-124.5594
54.500000	93.536	-124.6179
55.200001	93.629	-124.8278
56.000000	93.743	-125.2607
57.000000	93.892	-126.0585
58.000000	94.050	-127.1537
59.000000	94.199	-128.6514
60.000000	94.297	-130.4563
60.799999	94.334	-131.9578
61.500000	94.335	-133.2694
62.200001	94.305	-134.5393
63.000000	94.233	-135.8608
64.000000	94.100	-137.2373
65.000000	93.931	-138.2524
66.000000	93.745	-138.8438
67.000000	93.567	-139.0010
68.000000	93.418	-138.7581
69.000000	93.322	-138.2008
70.000000	93.290	-137.4867
71.000000	93.322	-136.7800
72.000000	93.405	-136.2214
73.000000	93.522	-135.8911
74.000000	93.660	-135.8174
75.000000	93.802	-136.0387
76.199997	93.954	-136.6228
77.500000	94.091	-137.4794
78.800003	94.197	-138.4712
80.000000	94.272	-139.4089
81.199997	94.332	-140.3579
82.500000	94.375	-141.4070
83.800003	94.393	-142.4368
85.000000	94.389	-143.3369
86.199997	94.368	-144.1760
87.500000	94.324	-144.9878
88.500000	94.278	-145.4900
90.000000	94.208	-145.9805
91.199997	94.169	-146.1814
92.500000	94.152	-146.3293
93.800003	94.157	-146.5178
95.000000	94.169	-146.7725
96.199997	94.179	-147.1017
97.500000	94.185	-147.5334
98.800003	94.177	-148.0270
100.000000	94.155	-148.5132
101.500000	94.098	-149.1030
103.000000	94.004	-149.5149
104.400002	93.897	-149.5605
106.000000	93.790	-149.0914
107.500000	93.753	-148.2582
109.000000	93.800	-147.3867
110.599998	93.917	-146.7760
112.000000	94.037	-146.6200
113.800003	94.172	-146.8302
115.000000	94.238	-147.1106
117.199997	94.306	-147.6185
118.000000	94.318	-147.7371
120.599998	94.346	-147.7773
122.000000	94.372	-147.6024
124.099998	94.453	-147.1992
125.000000	94.506	-147.0247
126.500000	94.618	-146.8049
128.000000	94.754	-146.7358
131.500000	95.091	-147.3027
132.000000	95.136	-147.4581
134.000000	95.297	-148.2090
136.000000	95.421	-149.0737
138.000000	95.514	-149.9363
140.000000	95.586	-150.7500
143.000000	95.675	-151.8511
145.000000	95.736	-152.5156
147.500000	95.818	-153.3407
150.000000	95.896	-154.2168
152.500000	95.959	-155.1350
155.000000	96.007	-156.0719
157.500000	96.044	-157.0010
160.000000	96.070	-157.9103
162.500000	96.089	-158.7697
165.000000	96.101	-159.5908
167.500000	96.107	-160.3904
170.000000	96.103	-161.1619
172.500000	96.091	-161.8896
175.000000	96.064	-162.5291
177.500000	96.025	-162.9741
180.000000	95.998	-163.1152
182.500000	96.030	-163.1116
185.000000	96.115	-163.3485
187.500000	96.203	-163.9357
190.000000	96.263	-164.6987
192.500000	96.302	-165.4840
195.000000	96.328	-166.2671
197.500000	96.344	-167.0298
200.000000	96.356	-167.7678
203.000000	96.367	-168.6760
206.000000	96.368	-169.5762
209.000000	96.364	-170.4316
212.000000	96.358	-171.2909
214.000000	96.352	-171.8698
218.000000	96.337	-173.0319
220.000000	96.326	-173.6287
224.000000	96.287	-174.8577
227.000000	96.240	-175.7485
230.000000	96.185	-176.5801
233.000000	96.130	-177.3792
236.000000	96.072	-178.1736
240.000000	95.988	-179.2178
243.000000	95.922	-179.9779
247.000000	95.826	179.0237
250.000000	95.744	178.2634
254.000000	95.615	177.2830
258.000000	95.466	176.4204
262.000000	95.307	175.6736
265.000000	95.182	175.1702
269.000000	95.011	174.5580
272.000000	94.878	174.1367
276.000000	94.696	173.6315
280.000000	94.518	173.2067
285.000000	94.307	172.8289
290.000000	94.095	172.6448
295.000000	93.877	172.5916
300.000000	93.665	172.5962
304.000000	93.501	172.6738
307.000000	93.379	172.7874
311.000000	93.220	173.0071
315.000000	93.067	173.3226
320.000000	92.881	173.8457
325.000000	92.707	174.4578
330.000000	92.551	175.1497
335.000000	92.410	175.9114
340.000000	92.284	176.7239
345.000000	92.176	177.5811
350.000000	92.085	178.4585
355.000000	92.008	179.3337
360.000000	91.945	-179.8086
365.000000	91.896	-178.9786
370.000000	91.855	-178.1912
375.000000	91.816	-177.4392
382.000000	91.769	-176.3809
387.000000	91.741	-175.6033
395.000000	91.713	-174.3213
400.000000	91.709	-173.5007
406.000000	91.721	-172.5359
412.000000	91.753	-171.6436
418.000000	91.798	-170.8652
425.000000	91.856	-170.0986
431.000000	91.905	-169.5217
437.000000	91.953	-169.0024
444.000000	92.010	-168.4625
450.000000	92.058	-168.0615
455.000000	92.098	-167.7682
462.000000	92.152	-167.4089
468.000000	92.194	-167.1570
475.000000	92.235	-166.9451
482.000000	92.261	-166.7966
487.000000	92.268	-166.6910
494.000000	92.262	-166.4897
500.000000	92.244	-166.2314
508.000000	92.211	-165.7346
515.000000	92.183	-165.1411
522.000000	92.168	-164.4113
530.000000	92.176	-163.4805
538.000000	92.210	-162.5310
545.000000	92.257	-161.7289
552.000000	92.319	-160.9601
560.000000	92.407	-160.1392
570.000000	92.539	-159.2454
580.000000	92.684	-158.5010
590.000000	92.840	-157.8920
600.000000	93.005	-157.4373
608.000000	93.136	-157.1799
615.000000	93.250	-157.0071
622.000000	93.365	-156.8861
630.000000	93.496	-156.8301
640.000000	93.656	-156.8765
650.000000	93.813	-157.0337
660.000000	93.966	-157.3154
670.000000	94.111	-157.7253
680.000000	94.246	-158.2388
690.000000	94.375	-158.8408
700.000000	94.497	-159.5680
710.000000	94.603	-160.4480
720.000000	94.687	-161.4705
730.000000	94.744	-162.6022
740.000000	94.768	-163.7900
750.000000	94.756	-164.9972
762.000000	94.686	-166.4453
775.000000	94.543	-167.9448
788.000000	94.327	-169.2150
800.000000	94.062	-170.0195
812.000000	93.745	-170.2953
825.000000	93.376	-169.7562
838.000000	93.061	-168.2461
850.000000	92.884	-166.3323
862.000000	92.816	-164.4042
875.000000	92.826	-162.5674
885.000000	92.870	-161.3552
900.000000	92.982	-159.8419
912.000000	93.096	-158.9106
925.000000	93.222	-158.1412
938.000000	93.353	-157.5677
950.000000	93.480	-157.2288
962.000000	93.604	-157.1343
975.000000	93.713	-157.3489
988.000000	93.765	-157.8018
1000.000000	93.746	-158.2057
1015.000000	93.648	-158.2651
1030.000000	93.542	-157.5229
1044.000000	93.521	-156.2913
1060.000000	93.624	-154.8643
1075.000000	93.804	-153.9945
1090.000000	94.006	-153.7527
1106.000000	94.199	-154.1674
1120.000000	94.320	-155.0353
1138.000000	94.362	-156.6877
1150.000000	94.285	-157.9155
1172.000000	93.891	-159.3770
1180.000000	93.688	-159.3419
1206.000000	93.063	-156.6534
1220.000000	92.879	-154.0857
1241.000000	92.861	-149.9688
1250.000000	92.933	-148.3206
1265.000000	93.131	-145.9163
1280.000000	93.385	-144.0240
1315.000000	94.018	-141.3787
1320.000000	94.105	-141.1494
1340.000000	94.436	-140.4851
1360.000000	94.744	-140.1201
1380.000000	95.035	-139.9233
1400.000000	95.311	-139.8335
1430.000000	95.703	-139.9413
1450.000000	95.957	-140.2288
1475.000000	96.267	-140.8654
1500.000000	96.560	-141.8733
1525.000000	96.805	-143.3583
1550.000000	96.940	-145.2327
1575.000000	96.926	-146.8115
1600.000000	96.880	-147.3354
1625.000000	96.950	-147.4109
1650.000000	97.088	-148.0131
1675.000000	97.195	-149.2734
1700.000000	97.232	-151.0186
1725.000000	97.160	-153.1553
1750.000000	96.903	-155.3438
1775.000000	96.417	-156.7065
1800.000000	95.759	-156.1194
1825.000000	95.119	-152.9178
1850.000000	94.764	-147.6188
1875.000000	94.846	-141.7979
1900.000000	95.284	-137.0046
1925.000000	95.883	-133.8926
1950.000000	96.499	-132.3104
1975.000000	97.062	-131.8279
2000.000000	97.555	-132.0742
2030.000000	98.054	-133.0165
2060.000000	98.446	-134.4674
2090.000000	98.697	-136.2341
2120.000000	98.763	-137.7048
2140.000000	98.737	-137.9419
2180.000000	98.844	-136.4614
2200.000000	99.033	-135.5698
2240.000000	99.532	-134.3442
2270.000000	100.007	-133.8879
2300.000000	100.529	-134.2655
2330.000000	101.024	-135.4532
2360.000000	101.462	-137.2169
2400.000000	101.945	-140.0842
2430.000000	102.241	-142.3560
2470.000000	102.587	-145.4924
2500.000000	102.815	-148.0087
2540.000000	103.064	-151.5264
2580.000000	103.266	-154.9254
2620.000000	103.476	-158.5273
2650.000000	103.610	-162.0286
2690.000000	103.586	-168.0742
2720.000000	103.276	-172.9524
2760.000000	102.384	-177.5613
2800.000000	101.121	-176.8705
2850.000000	100.249	-167.7043
2900.000000	101.152	-160.1589
2950.000000	102.299	-160.8203
3000.000000	102.935	-165.5222
3040.000000	103.120	-169.8948
3070.000000	103.091	-173.0306
3110.000000	102.852	-176.1993
3150.000000	102.557	-177.4360
3200.000000	102.459	-177.6294
3250.000000	102.579	-178.4580
3300.000000	102.787	179.8308
3350.000000	102.970	176.9414
3400.000000	103.009	173.3372
3450.000000	102.899	170.0055
3500.000000	102.799	167.1797
3550.000000	102.728	163.8385
3600.000000	102.573	160.0914
3650.000000	102.376	155.9646
3700.000000	102.039	150.9417
3750.000000	101.431	145.7754
3820.000000	100.047	140.1123
3870.000000	98.608	140.5161
3950.000000	97.111	150.5286
4000.000000	97.214	154.2640
4060.000000	97.216	153.7952
4120.000000	96.581	153.4932
4180.000000	95.847	158.1198
4250.000000	95.972	164.2400
4310.000000	96.273	165.2249
4370.000000	96.272	164.7847
4440.000000	95.990	165.4980
4500.000000	95.907	167.8954
4550.000000	96.065	168.9775
4620.000000	96.131	168.2736
4680.000000	95.913	168.0728
4750.000000	95.681	169.7041
4820.000000	95.686	171.2875
4870.000000	95.694	171.6985
4940.000000	95.572	172.4629
5000.000000	95.501	174.1178
5080.000000	95.659	176.1870
5150.000000	95.832	176.7496
5220.000000	95.898	177.1743
5300.000000	96.024	178.5057
5380.000000	96.363	179.4146
5450.000000	96.682	179.0039
5520.000000	96.916	177.9492
5600.000000	97.123	176.8220
5700.000000	97.504	174.9413
5800.000000	97.749	170.6880
5900.000000	97.559	166.7048
6000.000000	97.371	165.1525
6080.000000	97.528	163.7554
6150.000000	97.695	160.5300
6220.000000	97.637	156.1757
6300.000000	97.350	151.5103
6400.000000	96.854	145.1467
6500.000000	95.774	139.4954
6600.000000	94.415	139.2106
6700.000000	93.575	139.4979
6800.000000	92.676	138.3027
6900.000000	91.539	138.2609
7000.000000	90.222	140.0981
7100.000000	88.762	147.2657
7200.000000	88.147	157.1193
7300.000000	88.083	163.2262
7400.000000	87.921	168.5972
7500.000000	87.921	174.4985
7620.000000	88.214	-178.7213
7750.000000	88.917	-173.2386
7880.000000	89.734	-170.5845
8000.000000	90.416	-170.7200
8120.000000	90.914	-172.0294
8250.000000	91.360	-175.0933
8380.000000	91.384	-178.6083
8500.000000	91.505	179.0381
8620.000000	91.525	173.7233
8750.000000	90.855	168.2692
8850.000000	90.161	167.7107
9000.000000	90.237	167.3662
9120.000000	90.605	156.5011
9250.000000	89.204	141.2625
9380.000000	85.453	146.9521
9500.000000	82.020	168.7642
9620.000000	81.543	-166.6521
9750.000000	82.618	-155.2739
9880.000000	82.673	-149.5537
10000.000000	83.390	-138.6543
10150.000000	86.076	-128.9868
10300.000000	87.671	-136.6245
10440.000000	86.923	-144.2798
10600.000000	85.653	-138.8977
10750.000000	85.903	-127.9226
10900.000000	87.841	-118.4222
11060.000000	90.434	-118.2780
11200.000000	92.107	-128.2471
11380.000000	92.494	-149.5203
11500.000000	91.572	-161.7654
11720.000000	88.250	-168.3406
11800.000000	86.815	-164.6158
12060.000000	84.304	-136.2107
12200.000000	85.584	-120.7056
12410.000000	88.655	-109.8192
12500.000000	89.936	-109.3126
12650.000000	91.808	-112.9630
12800.000000	93.171	-121.0936
13150.000000	94.211	-145.9519
13200.000000	94.146	-149.2574
13400.000000	93.477	-160.0896
13600.000000	92.449	-165.9407
13800.000000	91.611	-167.3397
14000.000000	91.406	-167.0663
14300.000000	92.221	-170.1689
14500.000000	93.115	-177.2068
14750.000000	94.087	165.1709
15000.000000	93.796	137.1697
15250.000000	91.546	107.8862
15500.000000	87.580	83.5082
15750.000000	81.934	62.5886
16000.000000	74.665	13.4144
16250.000000	72.755	-72.1465
16500.000000	78.218	-108.1991
16750.000000	83.068	-119.6161
17000.000000	86.140	-141.1696
17250.000000	86.666	-170.8738
17500.000000	85.160	170.0447
17750.000000	83.603	162.6542
18000.000000	82.876	155.5530
18250.000000	82.041	146.4272
18500.000000	80.696	139.8318
18750.000000	79.285	137.2609
19000.000000	78.241	137.3419
19250.000000	77.892	138.2808
19500.000000	78.407	136.5450
19750.000000	79.176	128.6147
