* Measurement data measured by REW V5.20.13
* Source: Headset (KM-HIFI-384KHZ), MICROPHONE (Master Volume), R, volume: 0.520
* Format: 256k Log Swept Sine, 1 sweep at -13.0 dBFS with no timing reference
* Dated: Aug 6, 2023 4:13:22 PM
* REW Settings:
*  C-weighting compensation: Off
*  Target level: 75.0 dB
* Note: 
* Measurement: Aug 6
* Smoothing: 1/24 octave
* Frequency Step: 1/48 octave
* Start Frequency: 20.000 Hz
*
* Freq(Hz)	SPL(dB)	Phase(degrees)
20.000000	62.910	-39.1595
20.299999	63.133	-40.3957
20.600000	63.330	-41.5642
20.900000	63.512	-42.6117
21.200001	63.691	-43.5289
21.400000	63.816	-44.0925
21.799999	64.081	-45.1827
22.000000	64.220	-45.7516
22.400000	64.504	-47.0084
22.700001	64.711	-48.0616
23.000000	64.903	-49.1707
23.299999	65.081	-50.2708
23.600000	65.249	-51.3143
24.000000	65.471	-52.5864
24.299999	65.647	-53.4815
24.700001	65.895	-54.6822
25.000000	66.087	-55.6417
25.400000	66.338	-57.0148
25.799999	66.573	-58.4381
26.200001	66.795	-59.8350
26.500000	66.957	-60.8475
26.900000	67.173	-62.1694
27.200001	67.334	-63.1659
27.600000	67.545	-64.5233
28.000000	67.746	-65.9090
28.500000	67.981	-67.6547
29.000000	68.198	-69.4000
29.500000	68.391	-71.1167
30.000000	68.562	-72.7143
30.400000	68.696	-73.8541
30.700001	68.803	-74.6408
31.100000	68.960	-75.6782
31.500000	69.129	-76.7938
32.000000	69.333	-78.3548
32.500000	69.509	-79.9905
33.000000	69.663	-81.5273
33.500000	69.819	-82.9472
34.000000	69.984	-84.3828
34.500000	70.140	-85.9122
35.000000	70.272	-87.4459
35.500000	70.390	-88.8493
36.000000	70.518	-90.1373
36.500000	70.660	-91.4573
37.000000	70.799	-92.9060
37.500000	70.916	-94.4118
38.200001	71.054	-96.3747
38.700001	71.159	-97.6653
39.500000	71.340	-99.7981
40.000000	71.446	-101.1938
40.599998	71.562	-102.8456
41.200001	71.681	-104.4916
41.799999	71.798	-106.2421
42.500000	71.906	-108.4311
43.099998	71.968	-110.3262
43.700001	72.007	-112.2112
44.400002	72.020	-114.4444
45.000000	71.984	-116.3102
45.500000	71.921	-117.6732
46.200001	71.820	-119.1298
46.799999	71.759	-120.0384
47.500000	71.734	-121.0001
48.200001	71.729	-122.0130
48.700001	71.727	-122.7446
49.400002	71.718	-123.7379
50.000000	71.703	-124.5461
50.799999	71.667	-125.4951
51.500000	71.628	-126.1603
52.200001	71.590	-126.6391
53.000000	71.580	-126.9488
53.799999	71.642	-127.3152
54.500000	71.735	-127.9331
55.200001	71.855	-128.8260
56.000000	72.018	-130.4740
57.000000	72.061	-133.4200
58.000000	71.919	-134.9068
59.000000	72.013	-135.1029
60.000000	72.220	-136.4754
60.799999	72.283	-137.8517
61.500000	72.302	-138.8270
62.200001	72.308	-139.7052
63.000000	72.294	-140.6334
64.000000	72.261	-141.7060
65.000000	72.214	-142.8054
66.000000	72.154	-143.8429
67.000000	72.104	-144.7713
68.000000	72.077	-145.6133
69.000000	72.076	-146.4147
70.000000	72.088	-147.2399
71.000000	72.096	-148.0773
72.000000	72.093	-148.8899
73.000000	72.082	-149.6774
74.000000	72.064	-150.4857
75.000000	72.038	-151.3154
76.199997	72.007	-152.2621
77.500000	71.987	-153.3236
78.800003	71.961	-154.3284
80.000000	71.946	-155.1473
81.199997	71.932	-155.9621
82.500000	71.905	-156.8087
83.800003	71.876	-157.6411
85.000000	71.846	-158.4815
86.199997	71.807	-159.3440
87.500000	71.763	-160.1944
88.500000	71.739	-160.7764
90.000000	71.716	-161.5961
91.199997	71.695	-162.2301
92.500000	71.658	-162.9049
93.800003	71.603	-163.5622
95.000000	71.544	-164.1908
96.199997	71.487	-164.8359
97.500000	71.448	-165.5991
98.800003	71.419	-166.5312
100.000000	71.369	-167.3589
101.500000	71.289	-168.0894
103.000000	71.190	-168.5978
104.400002	71.073	-168.9604
106.000000	70.913	-169.2382
107.500000	70.781	-169.2690
109.000000	70.710	-169.1511
110.599998	70.694	-169.0027
112.000000	70.708	-168.9393
113.800003	70.724	-169.1529
115.000000	70.731	-169.5088
117.199997	70.772	-170.8333
118.000000	70.779	-171.5650
120.599998	70.630	-173.2322
122.000000	70.554	-173.0636
124.099998	70.484	-172.8360
125.000000	70.437	-172.7976
126.500000	70.357	-172.7367
128.000000	70.301	-172.7021
131.500000	70.293	-172.8081
132.000000	70.293	-172.8686
134.000000	70.263	-173.1045
136.000000	70.222	-173.3380
138.000000	70.185	-173.6426
140.000000	70.161	-173.8446
143.000000	70.148	-174.2461
145.000000	70.124	-174.6367
147.500000	70.100	-175.0198
150.000000	70.087	-175.2193
152.500000	70.046	-175.3627
155.000000	69.987	-175.4185
157.500000	69.953	-175.5235
160.000000	69.914	-175.9592
162.500000	69.815	-176.5393
165.000000	69.728	-176.9936
167.500000	69.697	-177.2513
170.000000	69.695	-177.4157
172.500000	69.665	-177.6751
175.000000	69.604	-178.0098
177.500000	69.557	-178.3255
180.000000	69.527	-178.6125
182.500000	69.477	-178.7326
185.000000	69.413	-178.6454
187.500000	69.347	-178.5872
190.000000	69.271	-178.6149
192.500000	69.204	-178.6499
195.000000	69.160	-178.6837
197.500000	69.135	-178.7053
200.000000	69.106	-178.7370
203.000000	69.049	-178.7908
206.000000	68.993	-178.8755
209.000000	68.954	-178.9720
212.000000	68.908	-178.9793
214.000000	68.875	-178.9429
218.000000	68.829	-178.9321
220.000000	68.813	-178.9186
224.000000	68.776	-178.8814
227.000000	68.743	-178.9448
230.000000	68.712	-179.0175
233.000000	68.670	-178.9412
236.000000	68.634	-178.7407
240.000000	68.593	-178.5870
243.000000	68.547	-178.5945
247.000000	68.480	-178.6227
250.000000	68.444	-178.5951
254.000000	68.401	-178.4426
258.000000	68.355	-178.2298
262.000000	68.319	-178.0178
265.000000	68.292	-177.8981
269.000000	68.242	-177.8125
272.000000	68.211	-177.7505
276.000000	68.197	-177.5376
280.000000	68.190	-177.2903
285.000000	68.153	-177.0964
290.000000	68.089	-177.0142
295.000000	68.059	-176.8872
300.000000	68.040	-176.6811
304.000000	68.022	-176.5182
307.000000	68.004	-176.3964
311.000000	67.969	-176.2724
315.000000	67.917	-176.1160
320.000000	67.843	-175.7910
325.000000	67.794	-175.5065
330.000000	67.773	-175.2852
335.000000	67.763	-175.0427
340.000000	67.753	-174.7756
345.000000	67.741	-174.3773
350.000000	67.739	-174.0243
355.000000	67.730	-173.7735
360.000000	67.707	-173.3992
365.000000	67.685	-173.0906
370.000000	67.667	-172.9642
375.000000	67.654	-172.8981
382.000000	67.630	-172.6024
387.000000	67.608	-172.2894
395.000000	67.569	-171.6897
400.000000	67.567	-171.2820
406.000000	67.557	-170.8530
412.000000	67.520	-170.5758
418.000000	67.488	-170.2204
425.000000	67.492	-169.6685
431.000000	67.501	-169.2706
437.000000	67.495	-168.9218
444.000000	67.488	-168.4624
450.000000	67.476	-168.0867
455.000000	67.471	-167.7888
462.000000	67.478	-167.3929
468.000000	67.478	-167.0799
475.000000	67.474	-166.6211
482.000000	67.476	-165.9741
487.000000	67.499	-165.5448
494.000000	67.542	-165.1855
500.000000	67.568	-165.0118
508.000000	67.589	-164.5696
515.000000	67.593	-163.9808
522.000000	67.607	-163.5361
530.000000	67.644	-163.0965
538.000000	67.683	-162.5548
545.000000	67.726	-162.0918
552.000000	67.778	-161.7562
560.000000	67.831	-161.5252
570.000000	67.886	-161.2202
580.000000	67.964	-161.0198
590.000000	68.038	-161.2720
600.000000	67.996	-161.8811
608.000000	67.852	-162.0093
615.000000	67.677	-161.3257
622.000000	67.561	-159.8108
630.000000	67.593	-157.9244
640.000000	67.765	-156.4348
650.000000	67.936	-155.6724
660.000000	68.084	-155.1417
670.000000	68.233	-154.7036
680.000000	68.356	-154.5292
690.000000	68.441	-154.4272
700.000000	68.503	-154.2953
710.000000	68.548	-154.1638
720.000000	68.595	-153.9426
730.000000	68.650	-153.6819
740.000000	68.709	-153.4176
750.000000	68.761	-153.0701
762.000000	68.825	-152.5825
775.000000	68.893	-152.2037
788.000000	68.977	-151.7895
800.000000	69.068	-151.3959
812.000000	69.144	-151.0877
825.000000	69.231	-150.8805
838.000000	69.279	-150.6449
850.000000	69.322	-150.2369
862.000000	69.404	-149.6737
875.000000	69.519	-149.2170
885.000000	69.597	-149.0761
900.000000	69.677	-148.9488
912.000000	69.718	-148.7052
925.000000	69.775	-148.2726
938.000000	69.857	-147.7382
950.000000	69.951	-147.3100
962.000000	70.059	-146.9131
975.000000	70.175	-146.4834
988.000000	70.296	-146.1790
1000.000000	70.409	-145.9938
1015.000000	70.541	-145.7897
1030.000000	70.671	-145.5973
1044.000000	70.788	-145.4539
1060.000000	70.917	-145.3293
1075.000000	71.046	-145.2513
1090.000000	71.180	-145.3026
1106.000000	71.313	-145.3166
1120.000000	71.422	-145.3525
1138.000000	71.552	-145.4310
1150.000000	71.630	-145.5195
1172.000000	71.758	-145.4767
1180.000000	71.815	-145.4156
1206.000000	72.033	-145.3443
1220.000000	72.147	-145.3713
1241.000000	72.307	-145.4109
1250.000000	72.385	-145.4384
1265.000000	72.520	-145.5213
1280.000000	72.648	-145.5815
1315.000000	72.958	-145.8042
1320.000000	73.010	-145.9179
1340.000000	73.196	-146.8668
1360.000000	73.332	-147.7672
1380.000000	73.473	-148.4533
1400.000000	73.624	-149.3607
1430.000000	73.735	-150.9139
1450.000000	73.716	-151.8985
1475.000000	73.614	-151.7517
1500.000000	73.790	-150.7867
1525.000000	74.023	-151.3229
1550.000000	74.203	-152.3319
1575.000000	74.334	-153.4174
1600.000000	74.392	-154.5160
1625.000000	74.454	-155.0413
1650.000000	74.581	-155.8553
1675.000000	74.659	-157.0450
1700.000000	74.694	-158.2245
1725.000000	74.675	-159.2214
1750.000000	74.619	-159.6624
1775.000000	74.595	-159.6161
1800.000000	74.637	-159.6670
1825.000000	74.745	-159.8360
1850.000000	74.887	-160.1597
1875.000000	75.049	-160.8519
1900.000000	75.167	-162.0427
1925.000000	75.237	-163.2451
1950.000000	75.315	-164.3769
1975.000000	75.385	-165.8940
2000.000000	75.381	-167.7965
2030.000000	75.266	-169.8337
2060.000000	75.107	-170.9853
2090.000000	74.994	-171.7956
2120.000000	74.916	-172.6764
2140.000000	74.884	-173.2816
2180.000000	74.769	-175.3542
2200.000000	74.621	-176.5038
2240.000000	74.278	-178.1527
2270.000000	73.966	-179.1097
2300.000000	73.539	-179.1809
2330.000000	73.130	-178.0327
2360.000000	72.855	-176.3584
2400.000000	72.679	-174.1762
2430.000000	72.626	-172.8466
2470.000000	72.611	-171.4030
2500.000000	72.589	-170.6157
2540.000000	72.547	-169.4064
2580.000000	72.606	-168.3248
2620.000000	72.675	-168.0994
2650.000000	72.681	-168.3622
2690.000000	72.560	-168.9111
2720.000000	72.377	-169.0460
2760.000000	72.022	-168.7088
2800.000000	71.544	-166.9111
2850.000000	71.051	-162.0000
2900.000000	70.914	-155.4528
2950.000000	71.194	-148.1649
3000.000000	71.992	-141.6142
3040.000000	72.860	-138.2980
3070.000000	73.524	-137.1068
3110.000000	74.326	-136.8840
3150.000000	74.998	-137.4814
3200.000000	75.741	-138.3937
3250.000000	76.533	-139.3314
3300.000000	77.368	-141.5183
3350.000000	78.085	-145.1356
3400.000000	78.618	-149.5880
3450.000000	78.986	-154.1026
3500.000000	79.271	-158.5352
3550.000000	79.488	-163.1737
3600.000000	79.578	-168.1781
3650.000000	79.493	-172.9992
3700.000000	79.289	-177.0466
3750.000000	79.058	179.6602
3820.000000	78.729	175.6662
3870.000000	78.489	173.1921
3950.000000	78.106	169.2883
4000.000000	77.803	167.0087
4060.000000	77.392	164.8378
4120.000000	76.990	163.2221
4180.000000	76.597	161.9336
4250.000000	76.161	160.8097
4310.000000	75.804	160.0914
4370.000000	75.479	159.4311
4440.000000	75.078	158.5565
4500.000000	74.684	158.0004
4550.000000	74.321	157.9266
4620.000000	73.821	158.4338
4680.000000	73.410	159.3390
4750.000000	72.954	161.0918
4820.000000	72.602	163.8383
4870.000000	72.468	165.9805
4940.000000	72.398	168.8277
5000.000000	72.430	171.1217
5080.000000	72.603	173.6953
5150.000000	72.808	175.2924
5220.000000	73.015	176.4458
5300.000000	73.251	177.6192
5380.000000	73.541	178.8103
5450.000000	73.867	179.7343
5520.000000	74.287	-179.5629
5600.000000	74.903	-179.5776
5700.000000	75.736	178.3992
5800.000000	76.482	174.1111
5900.000000	77.005	167.9253
6000.000000	77.251	160.6133
6080.000000	77.248	154.4066
6150.000000	77.108	148.8023
6220.000000	76.820	143.1490
6300.000000	76.297	136.9789
6400.000000	75.384	130.1431
6500.000000	74.210	124.6622
6600.000000	72.813	121.1793
6700.000000	71.316	119.7523
6800.000000	69.770	120.0831
6900.000000	68.153	122.5861
7000.000000	66.535	127.9841
7100.000000	65.114	136.2708
7200.000000	64.116	146.3114
7300.000000	63.572	156.5605
7400.000000	63.323	166.5606
7500.000000	63.309	177.1104
7620.000000	63.941	-169.4744
7750.000000	65.570	-157.3255
7880.000000	67.625	-151.0564
8000.000000	69.402	-150.5164
8120.000000	70.948	-153.2672
8250.000000	72.427	-159.0649
8380.000000	73.631	-168.1234
8500.000000	74.375	-179.5763
8620.000000	74.527	166.2284
8750.000000	73.804	150.4657
8850.000000	72.621	140.5236
9000.000000	70.020	133.3931
9120.000000	67.748	135.4268
9250.000000	65.873	142.9684
9380.000000	65.151	151.3163
9500.000000	65.234	155.8888
9620.000000	65.466	156.4789
9750.000000	65.438	153.4276
9880.000000	64.892	148.7044
10000.000000	63.834	145.1907
10150.000000	61.788	146.3124
10300.000000	59.484	156.6644
10440.000000	58.117	171.8342
10600.000000	57.968	-170.9533
10750.000000	58.557	-157.7920
10900.000000	59.369	-146.7223
11060.000000	60.559	-135.7313
11200.000000	62.051	-127.2438
11380.000000	64.393	-121.0144
11500.000000	65.745	-121.8661
11720.000000	66.503	-128.7125
11800.000000	66.304	-127.7797
12060.000000	68.509	-108.9774
12200.000000	71.010	-105.6643
12410.000000	74.046	-114.3591
12500.000000	75.135	-120.6993
12650.000000	76.629	-134.7612
12800.000000	77.357	-153.7775
13150.000000	74.813	166.7294
13200.000000	74.096	164.0760
13400.000000	71.122	160.4124
13600.000000	68.706	163.6076
13800.000000	67.233	169.2354
14000.000000	66.596	175.6185
14300.000000	67.820	-175.2492
14500.000000	70.094	-176.9503
14750.000000	72.386	161.1813
15000.000000	72.206	122.5670
15250.000000	69.189	86.5671
15500.000000	64.159	56.6171
15750.000000	58.474	16.1750
16000.000000	57.605	-37.6066
16250.000000	61.379	-79.3766
16500.000000	64.570	-103.5728
16750.000000	66.898	-121.2036
17000.000000	68.051	-140.0105
17250.000000	67.849	-157.4426
17500.000000	66.628	-168.3224
17750.000000	65.214	-171.7770
18000.000000	64.491	-174.3484
18250.000000	63.999	177.8262
18500.000000	62.840	167.0713
18750.000000	60.942	158.8643
19000.000000	58.825	155.5273
19250.000000	57.414	154.4818
19500.000000	56.905	149.0464
19750.000000	56.247	140.6920
