* Measurement data measured by REW V5.20.13
* Source: Headset (KM-HIFI-384KHZ), MICROPHONE (Master Volume), L, volume: 0.250
* Format: 256k Log Swept Sine, 1 sweep at -13.0 dBFS with no timing reference
* Dated: Jul 19, 2023 3:30:23 AM
* REW Settings:
*  C-weighting compensation: Off
*  Target level: 75.0 dB
* Note: 
* Measurement: Philphone (300?) L
* Smoothing: 1/12 octave
* Frequency Step: 1/48 octave
* Start Frequency: 20.000 Hz
*
* Freq(Hz)	SPL(dB)	Phase(degrees)
20.000000	90.601	-98.1947
20.299999	90.728	-98.9261
20.600000	90.852	-99.6645
20.900000	90.972	-100.4127
21.200001	91.086	-101.1641
21.400000	91.159	-101.6593
21.799999	91.299	-102.6251
22.000000	91.368	-103.0925
22.400000	91.503	-103.9983
22.700001	91.604	-104.6626
23.000000	91.706	-105.3259
23.299999	91.807	-105.9948
23.600000	91.907	-106.6706
24.000000	92.036	-107.5781
24.299999	92.130	-108.2576
24.700001	92.252	-109.1549
25.000000	92.341	-109.8190
25.400000	92.457	-110.6920
25.799999	92.570	-111.5500
26.200001	92.681	-112.3919
26.500000	92.762	-113.0132
26.900000	92.869	-113.8311
27.200001	92.948	-114.4403
27.600000	93.051	-115.2509
28.000000	93.151	-116.0611
28.500000	93.269	-117.0686
29.000000	93.380	-118.0640
29.500000	93.486	-119.0461
30.000000	93.584	-120.0137
30.400000	93.659	-120.7716
30.700001	93.713	-121.3269
31.100000	93.784	-122.0505
31.500000	93.855	-122.7628
32.000000	93.943	-123.6552
32.500000	94.026	-124.5547
33.000000	94.104	-125.4355
33.500000	94.178	-126.2658
34.000000	94.255	-127.0457
34.500000	94.339	-127.8148
35.000000	94.428	-128.6128
35.500000	94.515	-129.4518
36.000000	94.597	-130.3200
36.500000	94.672	-131.2078
37.000000	94.740	-132.1097
37.500000	94.798	-133.0071
38.200001	94.864	-134.1895
38.700001	94.910	-134.9590
39.500000	94.994	-136.1424
40.000000	95.050	-136.9081
40.599998	95.112	-137.8534
41.200001	95.169	-138.7869
41.799999	95.225	-139.6914
42.500000	95.290	-140.7282
43.099998	95.344	-141.6142
43.700001	95.393	-142.4921
44.400002	95.445	-143.4955
45.000000	95.485	-144.3349
45.500000	95.516	-145.0224
46.200001	95.555	-145.9780
46.799999	95.586	-146.8074
47.500000	95.614	-147.8022
48.200001	95.632	-148.8119
48.700001	95.639	-149.5195
49.400002	95.647	-150.4692
50.000000	95.657	-151.2595
50.799999	95.676	-152.3328
51.500000	95.692	-153.3064
52.200001	95.703	-154.2818
53.000000	95.709	-155.3633
53.799999	95.710	-156.4057
54.500000	95.702	-157.2829
55.200001	95.686	-158.1104
56.000000	95.658	-158.9808
57.000000	95.615	-159.9716
58.000000	95.563	-160.8694
59.000000	95.509	-161.6595
60.000000	95.465	-162.3530
60.799999	95.443	-162.8675
61.500000	95.437	-163.3227
62.200001	95.441	-163.8210
63.000000	95.448	-164.4652
64.000000	95.445	-165.3344
65.000000	95.427	-166.1668
66.000000	95.400	-166.9094
67.000000	95.375	-167.5917
68.000000	95.352	-168.2759
69.000000	95.327	-168.9932
70.000000	95.295	-169.7342
71.000000	95.256	-170.4836
72.000000	95.207	-171.2218
73.000000	95.143	-171.9024
74.000000	95.065	-172.4527
75.000000	94.983	-172.8130
76.199997	94.899	-173.0023
77.500000	94.850	-173.0549
78.800003	94.846	-173.1784
80.000000	94.861	-173.4745
81.199997	94.876	-173.9000
82.500000	94.889	-174.4056
83.800003	94.908	-174.9384
85.000000	94.930	-175.4982
86.199997	94.951	-176.1508
87.500000	94.962	-176.9513
88.500000	94.960	-177.6100
90.000000	94.939	-178.6222
91.199997	94.909	-179.4256
92.500000	94.864	179.7245
93.800003	94.809	178.8981
95.000000	94.749	178.1545
96.199997	94.680	177.4308
97.500000	94.592	176.6873
98.800003	94.490	176.0235
100.000000	94.386	175.5157
101.500000	94.248	175.0493
103.000000	94.110	174.7650
104.400002	93.986	174.6547
106.000000	93.863	174.6993
107.500000	93.778	174.8421
109.000000	93.725	174.9844
110.599998	93.691	175.0636
112.000000	93.670	175.0533
113.800003	93.642	174.9482
115.000000	93.622	174.8387
117.199997	93.584	174.5898
118.000000	93.570	174.4909
120.599998	93.529	174.1537
122.000000	93.506	173.9607
124.099998	93.469	173.6373
125.000000	93.452	173.4828
126.500000	93.421	173.2057
128.000000	93.388	172.9138
131.500000	93.296	172.2473
132.000000	93.281	172.1596
134.000000	93.217	171.8394
136.000000	93.154	171.5639
138.000000	93.093	171.3204
140.000000	93.036	171.1048
143.000000	92.951	170.8058
145.000000	92.892	170.6003
147.500000	92.814	170.3359
150.000000	92.734	170.0775
152.500000	92.653	169.8515
155.000000	92.571	169.6804
157.500000	92.483	169.5557
160.000000	92.387	169.4895
162.500000	92.293	169.4789
165.000000	92.205	169.4970
167.500000	92.127	169.5351
170.000000	92.057	169.5959
172.500000	91.996	169.6740
175.000000	91.941	169.7615
177.500000	91.888	169.8542
180.000000	91.838	169.9487
182.500000	91.790	170.0385
185.000000	91.742	170.1195
187.500000	91.696	170.1912
190.000000	91.651	170.2532
192.500000	91.607	170.3050
195.000000	91.562	170.3495
197.500000	91.515	170.3914
200.000000	91.466	170.4377
203.000000	91.408	170.5142
206.000000	91.352	170.6258
209.000000	91.301	170.7679
212.000000	91.255	170.9262
214.000000	91.227	171.0342
218.000000	91.171	171.2381
220.000000	91.143	171.3253
224.000000	91.087	171.4762
227.000000	91.044	171.5897
230.000000	90.997	171.7049
233.000000	90.949	171.8138
236.000000	90.904	171.9230
240.000000	90.847	172.0938
243.000000	90.808	172.2462
247.000000	90.758	172.4781
250.000000	90.723	172.6630
254.000000	90.678	172.9042
258.000000	90.632	173.1343
262.000000	90.583	173.3551
265.000000	90.546	173.5155
269.000000	90.496	173.7373
272.000000	90.461	173.9172
276.000000	90.415	174.1633
280.000000	90.370	174.4033
285.000000	90.312	174.7101
290.000000	90.259	175.0128
295.000000	90.213	175.2994
300.000000	90.168	175.6044
304.000000	90.130	175.8836
307.000000	90.103	176.1125
311.000000	90.071	176.4265
315.000000	90.043	176.7360
320.000000	90.013	177.1136
325.000000	89.982	177.4846
330.000000	89.953	177.8627
335.000000	89.929	178.2476
340.000000	89.912	178.6095
345.000000	89.898	178.9221
350.000000	89.884	179.1760
355.000000	89.864	179.3848
360.000000	89.834	179.5753
365.000000	89.791	179.7796
370.000000	89.736	-179.9459
375.000000	89.679	-179.5513
382.000000	89.616	-178.8431
387.000000	89.592	-178.3295
395.000000	89.571	-177.6153
400.000000	89.560	-177.2255
406.000000	89.543	-176.7821
412.000000	89.521	-176.3466
418.000000	89.494	-175.8953
425.000000	89.463	-175.2969
431.000000	89.443	-174.7220
437.000000	89.432	-174.1303
444.000000	89.428	-173.4452
450.000000	89.431	-172.8605
455.000000	89.440	-172.3811
462.000000	89.459	-171.7480
468.000000	89.477	-171.2556
475.000000	89.498	-170.7232
482.000000	89.520	-170.1996
487.000000	89.536	-169.8250
494.000000	89.563	-169.3158
500.000000	89.589	-168.9065
508.000000	89.628	-168.4160
515.000000	89.661	-168.0548
522.000000	89.692	-167.7680
530.000000	89.717	-167.5342
538.000000	89.716	-167.3654
545.000000	89.683	-167.1771
552.000000	89.622	-166.8097
560.000000	89.550	-166.0402
570.000000	89.520	-164.6704
580.000000	89.572	-163.2874
590.000000	89.667	-162.1789
600.000000	89.767	-161.3222
608.000000	89.843	-160.7338
615.000000	89.905	-160.2555
622.000000	89.965	-159.8014
630.000000	90.031	-159.2991
640.000000	90.113	-158.6697
650.000000	90.199	-158.0269
660.000000	90.294	-157.3853
670.000000	90.401	-156.7702
680.000000	90.521	-156.2146
690.000000	90.650	-155.7698
700.000000	90.780	-155.4705
710.000000	90.902	-155.2999
720.000000	91.012	-155.2147
730.000000	91.107	-155.1756
740.000000	91.186	-155.1468
750.000000	91.254	-155.1046
762.000000	91.328	-155.0283
775.000000	91.404	-154.9013
788.000000	91.478	-154.7233
800.000000	91.544	-154.5274
812.000000	91.609	-154.3052
825.000000	91.680	-154.0248
838.000000	91.759	-153.7311
850.000000	91.841	-153.4942
862.000000	91.928	-153.3186
875.000000	92.018	-153.2017
885.000000	92.079	-153.1343
900.000000	92.160	-153.0138
912.000000	92.222	-152.8953
925.000000	92.288	-152.7639
938.000000	92.351	-152.6409
950.000000	92.407	-152.5199
962.000000	92.459	-152.3693
975.000000	92.514	-152.1618
988.000000	92.567	-151.9014
1000.000000	92.619	-151.6020
1015.000000	92.695	-151.1548
1030.000000	92.790	-150.6887
1044.000000	92.894	-150.3043
1060.000000	93.024	-149.9558
1075.000000	93.148	-149.7034
1090.000000	93.272	-149.4999
1106.000000	93.403	-149.3297
1120.000000	93.515	-149.2130
1138.000000	93.660	-149.0713
1150.000000	93.760	-148.9797
1172.000000	93.954	-148.8849
1180.000000	94.026	-148.8868
1206.000000	94.252	-149.0264
1220.000000	94.366	-149.1450
1241.000000	94.534	-149.3136
1250.000000	94.608	-149.3890
1265.000000	94.733	-149.5413
1280.000000	94.859	-149.7434
1315.000000	95.137	-150.4300
1320.000000	95.174	-150.5457
1340.000000	95.313	-151.0110
1360.000000	95.444	-151.4716
1380.000000	95.564	-151.9411
1400.000000	95.668	-152.3810
1430.000000	95.812	-152.6648
1450.000000	95.962	-152.5395
1475.000000	96.237	-152.6562
1500.000000	96.529	-153.3553
1525.000000	96.805	-154.4361
1550.000000	97.066	-155.8054
1575.000000	97.307	-157.4710
1600.000000	97.513	-159.4453
1625.000000	97.671	-161.6565
1650.000000	97.771	-163.9651
1675.000000	97.825	-166.2321
1700.000000	97.851	-168.4288
1725.000000	97.863	-170.6224
1750.000000	97.860	-172.9183
1775.000000	97.831	-175.3827
1800.000000	97.766	-178.0578
1825.000000	97.648	179.0064
1850.000000	97.449	175.8101
1875.000000	97.132	172.5273
1900.000000	96.667	169.5354
1925.000000	96.046	167.3453
1950.000000	95.292	166.4509
1975.000000	94.462	167.1878
2000.000000	93.645	169.5865
2030.000000	92.826	174.2263
2060.000000	92.315	-179.9933
2090.000000	92.173	-173.9634
2120.000000	92.362	-168.5143
2140.000000	92.617	-165.5098
2180.000000	93.277	-161.2298
2200.000000	93.639	-159.9106
2240.000000	94.352	-158.8610
2270.000000	94.812	-159.4291
2300.000000	95.145	-160.9200
2330.000000	95.324	-162.8692
2360.000000	95.355	-164.7921
2400.000000	95.205	-166.6693
2430.000000	94.997	-167.2184
2470.000000	94.691	-166.6422
2500.000000	94.507	-165.3908
2540.000000	94.383	-163.0283
2580.000000	94.425	-160.3670
2620.000000	94.610	-157.9317
2650.000000	94.803	-156.4490
2690.000000	95.083	-154.9487
2720.000000	95.285	-154.0800
2760.000000	95.530	-153.0345
2800.000000	95.764	-151.7825
2850.000000	96.154	-149.6736
2900.000000	96.744	-147.6361
2950.000000	97.466	-146.5871
3000.000000	98.205	-146.8031
3040.000000	98.758	-147.7727
3070.000000	99.137	-148.8477
3110.000000	99.594	-150.5728
3150.000000	100.007	-152.4750
3200.000000	100.492	-155.0133
3250.000000	100.957	-157.8370
3300.000000	101.389	-161.1289
3350.000000	101.753	-164.9274
3400.000000	102.027	-169.0856
3450.000000	102.210	-173.4175
3500.000000	102.305	-177.8208
3550.000000	102.310	177.7907
3600.000000	102.221	173.5837
3650.000000	102.056	169.7291
3700.000000	101.844	166.2425
3750.000000	101.594	163.0392
3820.000000	101.165	159.0906
3870.000000	100.809	156.8422
3950.000000	100.227	154.2806
4000.000000	99.887	153.1216
4060.000000	99.503	151.9962
4120.000000	99.130	151.1233
4180.000000	98.758	150.5549
4250.000000	98.334	150.3879
4310.000000	97.997	150.7007
4370.000000	97.708	151.3621
4440.000000	97.446	152.3841
4500.000000	97.279	153.3403
4550.000000	97.172	154.1672
4620.000000	97.066	155.3878
4680.000000	97.015	156.5135
4750.000000	97.007	157.9356
4820.000000	97.065	159.4911
4870.000000	97.158	160.6754
4940.000000	97.379	162.3676
5000.000000	97.664	163.7440
5080.000000	98.190	165.2831
5150.000000	98.794	166.2099
5220.000000	99.549	166.5660
5300.000000	100.599	165.8723
5380.000000	101.801	163.3302
5450.000000	102.881	158.8951
5520.000000	103.857	151.8158
5600.000000	104.660	140.2903
5700.000000	104.933	122.2862
5800.000000	104.266	104.5263
5900.000000	102.802	91.2711
6000.000000	100.888	83.7150
6080.000000	99.290	80.9059
6150.000000	97.969	79.9651
6220.000000	96.772	79.8898
6300.000000	95.566	80.4429
6400.000000	94.272	81.7114
6500.000000	93.165	83.3685
6600.000000	92.197	85.2558
6700.000000	91.334	87.3079
6800.000000	90.547	89.5221
6900.000000	89.818	91.9357
7000.000000	89.129	94.6843
7100.000000	88.486	98.0092
7200.000000	87.930	102.0937
7300.000000	87.545	106.9031
7400.000000	87.432	112.1267
7500.000000	87.664	117.1865
7620.000000	88.395	122.0373
7750.000000	89.619	124.5994
7880.000000	91.099	123.3132
8000.000000	92.511	117.8537
8120.000000	93.759	107.3640
8250.000000	94.627	89.8184
8380.000000	94.705	67.5939
8500.000000	93.982	46.5156
8620.000000	92.614	27.8028
8750.000000	90.694	10.7646
8850.000000	89.116	-0.9151
9000.000000	86.869	-17.7363
9120.000000	85.331	-31.0473
9250.000000	84.108	-45.1999
9380.000000	83.537	-59.4158
9500.000000	83.521	-73.3925
9620.000000	83.647	-88.1866
9750.000000	83.609	-103.4763
9880.000000	83.345	-115.7433
10000.000000	83.073	-123.5868
10150.000000	82.958	-129.7489
10300.000000	83.179	-133.7490
10440.000000	83.634	-136.6912
10600.000000	84.399	-139.8853
10750.000000	85.333	-143.5021
10900.000000	86.391	-148.8115
11060.000000	87.481	-157.5213
11200.000000	88.248	-168.2922
11380.000000	88.795	173.6483
11500.000000	88.816	159.5955
11720.000000	88.100	132.5553
11800.000000	87.653	123.2209
12060.000000	86.633	96.8066
12200.000000	87.287	83.5678
12410.000000	89.774	60.3914
12500.000000	90.977	48.4069
12650.000000	92.763	25.6723
12800.000000	94.091	0.7322
13150.000000	95.350	-53.5510
13200.000000	95.378	-59.9857
13400.000000	95.294	-82.2963
13600.000000	94.971	-100.4649
13800.000000	94.370	-115.5013
14000.000000	93.448	-127.0703
14300.000000	91.634	-136.1477
14500.000000	90.513	-135.4690
14750.000000	90.397	-127.7336
15000.000000	92.175	-121.3250
15250.000000	94.012	-127.7489
15500.000000	94.709	-145.3047
15750.000000	94.078	-162.8770
16000.000000	92.464	-171.0520
16250.000000	90.896	-169.4155
16500.000000	90.675	-166.2731
16750.000000	91.572	-169.8281
17000.000000	92.583	176.4373
17250.000000	93.135	150.0896
17500.000000	92.814	108.9714
17750.000000	91.369	54.7566
18000.000000	89.051	-5.5428
18250.000000	86.892	-61.2988
18500.000000	86.072	-104.5295
18750.000000	86.249	-134.7504
19000.000000	86.549	-155.7968
19250.000000	86.641	-171.8452
19500.000000	86.416	174.8939
19750.000000	85.923	164.8291
