* Measurement data measured by REW V5.20.13
* Source: C:\Users\starf\Downloads\Sennheiser-HD-595-Ted_L.txt
* Format: Comma/Tab/Space delimited data
* Dated: Aug 12, 2023 5:29:55 PM
* REW Settings:
*  C-weighting compensation: Off
*  Target level: 75.0 dB
* Note: ; Measurement imported from C:\Users\starf\Downloads\Sennheiser-HD-595-Ted_L.txt Format: Comma/Tab/Space delimited data 480 values loaded, 20 Hz to 19,753 Hz log spaced 
* Measurement: Sennheiser-HD-595-Ted_L
* Smoothing: 1/24 octave
* Frequency Step: 1/48 octave
* Start Frequency: 20.000 Hz
*
* Freq(Hz)	SPL(dB)	Phase(degrees)
20.000000	88.671	-69.7466
20.299999	88.778	-70.3803
20.600000	88.920	-71.2960
20.900000	89.058	-72.3092
21.200001	89.183	-73.3435
21.400000	89.259	-74.0074
21.799999	89.408	-75.2279
22.000000	89.488	-75.7907
22.400000	89.668	-76.9101
22.700001	89.816	-77.8616
23.000000	89.962	-78.9847
23.299999	90.086	-80.2714
23.600000	90.169	-81.6268
24.000000	90.212	-83.2603
24.299999	90.208	-84.1372
24.700001	90.205	-84.6935
25.000000	90.245	-84.7363
25.400000	90.389	-84.6268
25.799999	90.616	-84.7776
26.200001	90.865	-85.4412
26.500000	91.028	-86.2348
26.900000	91.192	-87.4478
27.200001	91.278	-88.2925
27.600000	91.369	-89.1881
28.000000	91.466	-89.8435
28.500000	91.620	-90.5765
29.000000	91.793	-91.5120
29.500000	91.943	-92.7063
30.000000	92.049	-93.9900
30.400000	92.107	-94.9567
30.700001	92.143	-95.6154
31.100000	92.186	-96.4112
31.500000	92.231	-97.1360
32.000000	92.294	-97.9713
32.500000	92.369	-98.7530
33.000000	92.461	-99.5306
33.500000	92.566	-100.3642
34.000000	92.675	-101.2684
34.500000	92.782	-102.2083
35.000000	92.887	-103.1602
35.500000	92.985	-104.1297
36.000000	93.067	-105.0794
36.500000	93.133	-105.9010
37.000000	93.201	-106.5290
37.500000	93.289	-107.0578
38.200001	93.430	-107.8953
38.700001	93.519	-108.5307
39.500000	93.665	-109.4509
40.000000	93.777	-110.1931
40.599998	93.882	-111.5292
41.200001	93.888	-113.0257
41.799999	93.818	-114.1184
42.500000	93.734	-114.8552
43.099998	93.667	-115.2973
43.700001	93.602	-115.3689
44.400002	93.629	-114.9599
45.000000	93.776	-115.0724
45.500000	93.883	-115.9449
46.200001	93.851	-117.5130
46.799999	93.713	-117.8617
47.500000	93.663	-117.0576
48.200001	93.819	-116.4080
48.700001	93.968	-116.5311
49.400002	94.138	-117.2592
50.000000	94.246	-118.0617
50.799999	94.346	-119.3071
51.500000	94.380	-120.4670
52.200001	94.378	-121.5022
53.000000	94.371	-122.6093
53.799999	94.353	-123.8948
54.500000	94.297	-125.1786
55.200001	94.183	-126.4390
56.000000	93.975	-127.4477
57.000000	93.680	-127.3798
58.000000	93.545	-125.9259
59.000000	93.647	-124.2538
60.000000	93.878	-123.0759
60.799999	94.086	-122.4529
61.500000	94.269	-122.0284
62.200001	94.456	-121.7073
63.000000	94.666	-121.5270
64.000000	94.909	-121.6225
65.000000	95.115	-122.0766
66.000000	95.270	-122.8108
67.000000	95.381	-123.5979
68.000000	95.481	-124.3399
69.000000	95.584	-125.0720
70.000000	95.691	-125.7993
71.000000	95.798	-126.5174
72.000000	95.899	-127.2381
73.000000	95.985	-127.9475
74.000000	96.055	-128.6529
75.000000	96.103	-129.3580
76.199997	96.137	-130.1118
77.500000	96.174	-130.8224
78.800003	96.218	-131.5113
80.000000	96.264	-132.1156
81.199997	96.319	-132.6960
82.500000	96.379	-133.3185
83.800003	96.435	-133.9143
85.000000	96.483	-134.4347
86.199997	96.530	-134.9408
87.500000	96.581	-135.4993
88.500000	96.618	-135.9438
90.000000	96.670	-136.6179
91.199997	96.708	-137.1500
92.500000	96.747	-137.7325
93.800003	96.778	-138.3240
95.000000	96.795	-138.8314
96.199997	96.807	-139.2646
97.500000	96.823	-139.6621
98.800003	96.843	-140.0355
100.000000	96.864	-140.3982
101.500000	96.892	-140.8916
103.000000	96.920	-141.4164
104.400002	96.946	-141.9208
106.000000	96.969	-142.5085
107.500000	96.976	-143.0492
109.000000	96.963	-143.5281
110.599998	96.933	-143.9081
112.000000	96.905	-144.0905
113.800003	96.888	-144.1307
115.000000	96.897	-144.0697
117.199997	96.952	-143.8934
118.000000	96.983	-143.8616
120.599998	97.090	-144.0551
122.000000	97.132	-144.3458
124.099998	97.177	-144.8750
125.000000	97.195	-145.1068
126.500000	97.220	-145.4706
128.000000	97.240	-145.7634
131.500000	97.287	-146.2010
132.000000	97.296	-146.2591
134.000000	97.341	-146.5307
136.000000	97.392	-146.8782
138.000000	97.439	-147.2532
140.000000	97.479	-147.6276
143.000000	97.527	-148.2034
145.000000	97.556	-148.5815
147.500000	97.590	-149.0184
150.000000	97.619	-149.4227
152.500000	97.644	-149.8071
155.000000	97.666	-150.1984
157.500000	97.688	-150.5715
160.000000	97.709	-150.8866
162.500000	97.733	-151.1609
165.000000	97.754	-151.4287
167.500000	97.773	-151.7046
170.000000	97.791	-151.9829
172.500000	97.811	-152.2584
175.000000	97.830	-152.5327
177.500000	97.848	-152.8036
180.000000	97.868	-153.0790
182.500000	97.892	-153.3647
185.000000	97.919	-153.6669
187.500000	97.942	-153.9955
190.000000	97.958	-154.3463
192.500000	97.971	-154.6946
195.000000	97.982	-155.0105
197.500000	97.990	-155.2946
200.000000	97.988	-155.5632
203.000000	97.968	-155.8620
206.000000	97.938	-156.1340
209.000000	97.915	-156.3528
212.000000	97.912	-156.4908
214.000000	97.919	-156.5450
218.000000	97.941	-156.5986
220.000000	97.954	-156.6221
224.000000	97.975	-156.6854
227.000000	97.985	-156.7250
230.000000	97.999	-156.7614
233.000000	98.021	-156.8231
236.000000	98.048	-156.9360
240.000000	98.078	-157.1533
243.000000	98.093	-157.3234
247.000000	98.106	-157.5319
250.000000	98.117	-157.6810
254.000000	98.137	-157.8791
258.000000	98.157	-158.0581
262.000000	98.176	-158.2107
265.000000	98.189	-158.3220
269.000000	98.203	-158.4697
272.000000	98.212	-158.5822
276.000000	98.222	-158.7401
280.000000	98.234	-158.8983
285.000000	98.250	-159.0835
290.000000	98.266	-159.2583
295.000000	98.282	-159.4278
300.000000	98.298	-159.5829
304.000000	98.310	-159.6964
307.000000	98.319	-159.7769
311.000000	98.329	-159.8811
315.000000	98.335	-159.9886
320.000000	98.339	-160.1232
325.000000	98.343	-160.2478
330.000000	98.352	-160.3721
335.000000	98.367	-160.4957
340.000000	98.381	-160.6111
345.000000	98.391	-160.7197
350.000000	98.401	-160.8290
355.000000	98.411	-160.9358
360.000000	98.423	-161.0370
365.000000	98.435	-161.1393
370.000000	98.445	-161.2399
375.000000	98.450	-161.3279
382.000000	98.458	-161.4386
387.000000	98.465	-161.5193
395.000000	98.471	-161.6572
400.000000	98.474	-161.7488
406.000000	98.477	-161.8556
412.000000	98.476	-161.9444
418.000000	98.473	-162.0114
425.000000	98.472	-162.0603
431.000000	98.471	-162.0746
437.000000	98.467	-162.0546
444.000000	98.466	-162.0133
450.000000	98.474	-161.9859
455.000000	98.481	-161.9660
462.000000	98.488	-161.9273
468.000000	98.494	-161.8848
475.000000	98.503	-161.8589
482.000000	98.512	-161.8739
487.000000	98.516	-161.8851
494.000000	98.520	-161.8750
500.000000	98.524	-161.8496
508.000000	98.530	-161.8014
515.000000	98.536	-161.7481
522.000000	98.541	-161.6733
530.000000	98.551	-161.5594
538.000000	98.566	-161.4565
545.000000	98.580	-161.3808
552.000000	98.596	-161.3119
560.000000	98.617	-161.2561
570.000000	98.640	-161.2279
580.000000	98.659	-161.2016
590.000000	98.678	-161.1752
600.000000	98.698	-161.1428
608.000000	98.716	-161.1015
615.000000	98.731	-161.0839
622.000000	98.740	-161.0818
630.000000	98.745	-161.0601
640.000000	98.750	-160.9710
650.000000	98.760	-160.8462
660.000000	98.776	-160.7392
670.000000	98.796	-160.6347
680.000000	98.820	-160.5227
690.000000	98.852	-160.4541
700.000000	98.885	-160.4717
710.000000	98.912	-160.5605
720.000000	98.925	-160.6732
730.000000	98.925	-160.7826
740.000000	98.913	-160.8716
750.000000	98.893	-160.9411
762.000000	98.853	-160.9951
775.000000	98.786	-160.9179
788.000000	98.703	-160.5543
800.000000	98.638	-159.9158
812.000000	98.610	-159.0779
825.000000	98.628	-158.1737
838.000000	98.671	-157.3839
850.000000	98.723	-156.7014
862.000000	98.786	-156.0202
875.000000	98.879	-155.3270
885.000000	98.965	-154.8992
900.000000	99.099	-154.4703
912.000000	99.201	-154.2650
925.000000	99.301	-154.1347
938.000000	99.389	-154.0559
950.000000	99.461	-153.9756
962.000000	99.532	-153.8788
975.000000	99.608	-153.7874
988.000000	99.681	-153.7149
1000.000000	99.746	-153.6389
1015.000000	99.831	-153.5246
1030.000000	99.920	-153.4187
1044.000000	100.005	-153.3405
1060.000000	100.110	-153.2957
1075.000000	100.212	-153.3295
1090.000000	100.311	-153.4337
1106.000000	100.411	-153.6076
1120.000000	100.493	-153.8155
1138.000000	100.585	-154.1499
1150.000000	100.637	-154.3811
1172.000000	100.721	-154.7798
1180.000000	100.748	-154.9227
1206.000000	100.821	-155.3475
1220.000000	100.860	-155.5174
1241.000000	100.926	-155.7496
1250.000000	100.955	-155.8819
1265.000000	100.995	-156.1276
1280.000000	101.030	-156.3440
1315.000000	101.124	-156.8162
1320.000000	101.136	-156.9035
1340.000000	101.170	-157.2794
1360.000000	101.191	-157.5469
1380.000000	101.227	-157.7099
1400.000000	101.283	-158.0252
1430.000000	101.307	-158.9211
1450.000000	101.267	-159.2989
1475.000000	101.228	-159.4050
1500.000000	101.208	-159.5301
1525.000000	101.172	-159.5269
1550.000000	101.163	-159.3614
1575.000000	101.169	-159.3894
1600.000000	101.135	-159.4653
1625.000000	101.075	-159.2380
1650.000000	101.033	-158.7126
1675.000000	101.031	-158.0050
1700.000000	101.084	-157.4092
1725.000000	101.129	-157.1117
1750.000000	101.144	-156.7315
1775.000000	101.174	-156.1776
1800.000000	101.222	-155.6601
1825.000000	101.266	-155.1864
1850.000000	101.305	-154.5824
1875.000000	101.373	-153.8290
1900.000000	101.475	-153.1730
1925.000000	101.570	-152.6559
1950.000000	101.658	-152.0229
1975.000000	101.780	-151.2330
2000.000000	101.950	-150.5475
2030.000000	102.172	-150.0522
2060.000000	102.394	-149.7187
2090.000000	102.642	-149.5585
2120.000000	102.889	-149.8502
2140.000000	103.017	-150.2632
2180.000000	103.171	-150.9919
2200.000000	103.239	-151.1209
2240.000000	103.393	-151.2203
2270.000000	103.492	-151.0509
2300.000000	103.640	-150.4812
2330.000000	103.886	-149.9518
2360.000000	104.183	-149.9236
2400.000000	104.561	-150.6551
2430.000000	104.793	-151.5261
2470.000000	105.051	-152.7018
2500.000000	105.232	-153.5734
2540.000000	105.451	-154.7914
2580.000000	105.645	-155.8767
2620.000000	105.866	-156.7381
2650.000000	106.068	-157.4963
2690.000000	106.344	-158.8975
2720.000000	106.532	-160.1752
2760.000000	106.752	-162.0087
2800.000000	106.958	-163.9539
2850.000000	107.177	-166.7434
2900.000000	107.308	-169.6268
2950.000000	107.389	-172.3515
3000.000000	107.456	-174.8970
3040.000000	107.514	-177.0081
3070.000000	107.543	-178.6899
3110.000000	107.555	179.0179
3150.000000	107.540	176.6983
3200.000000	107.474	173.7837
3250.000000	107.362	171.0222
3300.000000	107.219	168.3136
3350.000000	107.026	165.6860
3400.000000	106.767	163.3274
3450.000000	106.476	161.5580
3500.000000	106.217	160.1809
3550.000000	105.992	158.9041
3600.000000	105.787	157.6838
3650.000000	105.614	156.3640
3700.000000	105.437	154.7150
3750.000000	105.209	152.8896
3820.000000	104.801	150.4614
3870.000000	104.459	148.9211
3950.000000	103.845	146.8760
4000.000000	103.431	145.7358
4060.000000	102.866	144.5031
4120.000000	102.189	143.7708
4180.000000	101.400	143.9980
4250.000000	100.354	146.2091
4310.000000	99.453	150.5177
4370.000000	98.763	157.0156
4440.000000	98.490	165.9299
4500.000000	98.749	173.2426
4550.000000	99.235	178.2825
4620.000000	100.109	-176.8345
4680.000000	100.890	-174.5727
4750.000000	101.766	-173.6743
4820.000000	102.590	-174.2509
4870.000000	103.123	-175.5786
4940.000000	103.736	-178.6059
5000.000000	104.101	178.0663
5080.000000	104.349	173.2849
5150.000000	104.375	169.3999
5220.000000	104.282	166.1320
5300.000000	104.103	163.1757
5380.000000	103.898	160.8839
5450.000000	103.721	159.2676
5520.000000	103.558	157.8657
5600.000000	103.383	156.3418
5700.000000	103.148	154.4638
5800.000000	102.870	152.8107
5900.000000	102.577	151.5773
6000.000000	102.319	150.5551
6080.000000	102.130	149.5773
6150.000000	101.944	148.5077
6220.000000	101.704	147.3467
6300.000000	101.336	146.2641
6400.000000	100.766	145.9323
6500.000000	100.192	147.0144
6600.000000	99.718	149.1535
6700.000000	99.383	151.9351
6800.000000	99.204	155.0874
6900.000000	99.193	158.3463
7000.000000	99.359	161.4106
7100.000000	99.692	163.9004
7200.000000	100.150	165.4024
7300.000000	100.654	165.6215
7400.000000	101.112	164.5355
7500.000000	101.449	162.4654
7620.000000	101.658	159.4863
7750.000000	101.688	156.6215
7880.000000	101.622	154.7162
8000.000000	101.586	153.9304
8120.000000	101.693	153.8377
8250.000000	102.055	153.6347
8380.000000	102.624	152.3661
8500.000000	103.290	149.8752
8620.000000	104.053	145.5505
8750.000000	104.858	137.9554
8850.000000	105.315	129.6807
9000.000000	105.492	114.0755
9120.000000	105.068	100.6782
9250.000000	104.053	87.5579
9380.000000	102.639	77.1387
9500.000000	101.181	69.7254
9620.000000	99.729	63.5260
9750.000000	98.253	56.9347
9880.000000	96.875	49.1996
10000.000000	95.607	40.1030
10150.000000	93.869	25.2906
10300.000000	91.851	6.0164
10440.000000	89.781	-16.6403
10600.000000	87.608	-47.2633
10750.000000	86.400	-76.9362
10900.000000	86.264	-102.7232
11060.000000	86.853	-123.1762
11200.000000	87.588	-135.5648
11380.000000	88.624	-146.8541
11500.000000	89.328	-153.5745
11720.000000	90.383	-168.2844
11800.000000	90.554	-175.1382
12060.000000	90.058	156.9981
12200.000000	89.093	137.5082
12410.000000	87.149	97.1362
12500.000000	86.670	74.4208
12650.000000	87.176	31.2192
12800.000000	88.888	-11.3375
13150.000000	92.320	-84.6833
13200.000000	92.578	-92.1811
13400.000000	92.968	-114.4731
13600.000000	92.770	-128.2866
13800.000000	92.315	-136.8464
14000.000000	91.757	-142.1604
14300.000000	90.858	-146.1012
14500.000000	90.297	-146.8074
14750.000000	89.677	-146.4590
15000.000000	89.024	-145.2512
15250.000000	88.185	-141.5410
15500.000000	87.464	-132.8785
15750.000000	87.726	-120.5582
16000.000000	89.265	-109.5176
16250.000000	91.469	-103.6680
16500.000000	93.721	-104.5914
16750.000000	95.562	-112.8273
17000.000000	96.618	-127.4336
17250.000000	96.672	-145.0015
17500.000000	95.701	-160.6301
17750.000000	93.846	-170.0635
18000.000000	91.395	-171.1586
18250.000000	88.824	-164.4321
18500.000000	86.836	-153.0970
18750.000000	85.936	-141.7715
19000.000000	85.835	-133.8318
19250.000000	85.927	-130.5277
19500.000000	85.843	-131.2322
19750.000000	85.619	-133.2483
