* Measurement data measured by REW V5.20.13
* Source: EXCL: Headset (KM-HIFI-384KHZ), MICROPHONE (Master Volume), 0, volume: 1.000
* Format: 256k Log Swept Sine, 1 sweep at -13.0 dBFS with no timing reference
* Dated: Aug 12, 2023 11:28:12 AM
* REW Settings:
*  C-weighting compensation: Off
*  Target level: 75.0 dB
* Note: 
* Measurement: Aug 12
* Smoothing: 1/24 octave
* Frequency Step: 1/48 octave
* Start Frequency: 20.000 Hz
*
* Freq(Hz)	SPL(dB)	Phase(degrees)
20.000000	91.802	-110.6074
20.299999	91.904	-111.1071
20.600000	92.033	-111.6154
20.900000	92.178	-112.2611
21.200001	92.319	-113.0907
21.400000	92.399	-113.7189
21.799999	92.521	-114.9746
22.000000	92.566	-115.5263
22.400000	92.649	-116.4031
22.700001	92.727	-116.9000
23.000000	92.830	-117.3724
23.299999	92.953	-117.9337
23.600000	93.084	-118.6559
24.000000	93.246	-119.8649
24.299999	93.348	-120.8770
24.700001	93.456	-122.2347
25.000000	93.526	-123.2060
25.400000	93.616	-124.4371
25.799999	93.711	-125.6533
26.200001	93.804	-126.9052
26.500000	93.868	-127.8626
26.900000	93.942	-129.1031
27.200001	93.991	-129.9560
27.600000	94.062	-130.9481
28.000000	94.155	-131.8200
28.500000	94.316	-132.9727
29.000000	94.485	-134.4684
29.500000	94.600	-136.2369
30.000000	94.637	-137.7868
30.400000	94.648	-138.5986
30.700001	94.678	-138.9875
31.100000	94.769	-139.4446
31.500000	94.900	-140.1452
32.000000	95.048	-141.5313
32.500000	95.118	-143.1486
33.000000	95.130	-144.4910
33.500000	95.151	-145.5060
34.000000	95.202	-146.5294
34.500000	95.245	-147.6987
35.000000	95.264	-148.7346
35.500000	95.307	-149.4057
36.000000	95.437	-149.9810
36.500000	95.641	-150.9904
37.000000	95.838	-152.6260
37.500000	95.969	-154.5725
38.200001	96.066	-157.0244
38.700001	96.135	-158.4792
39.500000	96.271	-160.8599
40.000000	96.326	-162.4756
40.599998	96.338	-164.2514
41.200001	96.332	-165.6393
41.799999	96.358	-166.8233
42.500000	96.417	-168.4545
43.099998	96.433	-170.1671
43.700001	96.390	-171.8759
44.400002	96.307	-173.5494
45.000000	96.253	-174.7764
45.500000	96.231	-175.7878
46.200001	96.233	-177.3300
46.799999	96.256	-178.8863
47.500000	96.273	178.9320
48.200001	96.239	176.5310
48.700001	96.180	174.8779
49.400002	96.081	172.7698
50.000000	95.998	171.0646
50.799999	95.888	168.7664
51.500000	95.777	166.6909
52.200001	95.645	164.5377
53.000000	95.450	162.0332
53.799999	95.207	159.7205
54.500000	94.989	157.9139
55.200001	94.781	156.1130
56.000000	94.519	153.9685
57.000000	94.121	151.5381
58.000000	93.678	149.5611
59.000000	93.187	147.9946
60.000000	92.639	146.9556
60.799999	92.157	146.6984
61.500000	91.743	147.0176
62.200001	91.377	147.5949
63.000000	90.995	148.2484
64.000000	90.510	149.5160
65.000000	90.139	151.5634
66.000000	89.939	153.4992
67.000000	89.823	155.1783
68.000000	89.803	156.7133
69.000000	89.872	157.6893
70.000000	89.970	157.9332
71.000000	90.070	157.3709
72.000000	90.106	155.7536
73.000000	89.972	153.4628
74.000000	89.650	151.3649
75.000000	89.197	150.0254
76.199997	88.566	149.6442
77.500000	87.841	150.7723
78.800003	87.150	153.5281
80.000000	86.596	157.2109
81.199997	86.168	161.9833
82.500000	85.975	167.8929
83.800003	86.095	173.6419
85.000000	86.447	178.3546
86.199997	86.990	-177.7833
87.500000	87.730	-174.8827
88.500000	88.346	-173.6632
90.000000	89.283	-173.5009
91.199997	89.961	-174.8970
92.500000	90.569	-177.5146
93.800003	91.057	178.9913
95.000000	91.374	174.9613
96.199997	91.508	170.3583
97.500000	91.411	165.3756
98.800003	91.103	161.1087
100.000000	90.702	158.1627
101.500000	90.189	155.7909
103.000000	89.767	153.7420
104.400002	89.338	151.4174
106.000000	88.594	149.0989
107.500000	87.623	149.2185
109.000000	86.644	152.4218
110.599998	85.935	158.1166
112.000000	85.694	163.4544
113.800003	85.753	169.5904
115.000000	85.929	172.9366
117.199997	86.332	177.4453
118.000000	86.465	178.7562
120.599998	87.099	-176.3250
122.000000	87.750	-174.4047
124.099998	88.792	-174.7267
125.000000	89.180	-175.8451
126.500000	89.705	-178.6052
128.000000	90.061	177.9221
131.500000	90.254	169.6853
132.000000	90.224	168.6445
134.000000	89.963	164.9310
136.000000	89.506	162.3299
138.000000	88.980	161.2299
140.000000	88.547	161.3086
143.000000	88.176	162.3624
145.000000	88.121	162.7764
147.500000	88.218	162.1943
150.000000	88.283	160.5185
152.500000	88.108	158.7443
155.000000	87.697	157.0349
157.500000	87.114	155.3250
160.000000	86.425	155.0291
162.500000	85.789	156.6207
165.000000	85.251	159.1293
167.500000	84.872	162.1403
170.000000	84.649	165.3881
172.500000	84.481	169.0439
175.000000	84.419	172.8070
177.500000	84.478	175.9229
180.000000	84.611	178.9093
182.500000	84.858	-178.2950
185.000000	85.173	-176.5963
187.500000	85.505	-176.1239
190.000000	85.795	-176.3948
192.500000	85.988	-176.7404
195.000000	86.087	-176.8741
197.500000	86.129	-176.8549
200.000000	86.160	-176.7522
203.000000	86.200	-176.6352
206.000000	86.239	-176.4766
209.000000	86.280	-176.2362
212.000000	86.306	-175.9341
214.000000	86.311	-175.7273
218.000000	86.311	-175.3141
220.000000	86.316	-175.0266
224.000000	86.355	-174.2698
227.000000	86.419	-173.7042
230.000000	86.514	-173.2438
233.000000	86.630	-172.9793
236.000000	86.747	-172.9728
240.000000	86.863	-173.2825
243.000000	86.895	-173.6217
247.000000	86.876	-173.9966
250.000000	86.838	-174.0848
254.000000	86.775	-173.8396
258.000000	86.713	-173.2113
262.000000	86.686	-172.2630
265.000000	86.714	-171.4362
269.000000	86.825	-170.5196
272.000000	86.933	-170.1559
276.000000	87.053	-170.0000
280.000000	87.133	-169.9221
285.000000	87.212	-169.7506
290.000000	87.292	-169.6022
295.000000	87.367	-169.4994
300.000000	87.435	-169.3970
304.000000	87.489	-169.3098
307.000000	87.534	-169.2565
311.000000	87.596	-169.2212
315.000000	87.660	-169.2330
320.000000	87.742	-169.3183
325.000000	87.815	-169.4977
330.000000	87.876	-169.7607
335.000000	87.925	-170.0789
340.000000	87.954	-170.4433
345.000000	87.956	-170.7730
350.000000	87.944	-170.9610
355.000000	87.933	-171.0148
360.000000	87.929	-171.0247
365.000000	87.926	-171.0347
370.000000	87.922	-171.0273
375.000000	87.917	-170.9894
382.000000	87.912	-170.8767
387.000000	87.911	-170.7491
395.000000	87.918	-170.4617
400.000000	87.931	-170.2541
406.000000	87.958	-169.9901
412.000000	88.004	-169.7424
418.000000	88.066	-169.6056
425.000000	88.144	-169.6727
431.000000	88.197	-169.8836
437.000000	88.230	-170.1539
444.000000	88.244	-170.4561
450.000000	88.244	-170.6615
455.000000	88.238	-170.7920
462.000000	88.226	-170.9202
468.000000	88.214	-170.9903
475.000000	88.200	-171.0391
482.000000	88.185	-171.0533
487.000000	88.176	-171.0436
494.000000	88.165	-171.0101
500.000000	88.156	-170.9707
508.000000	88.145	-170.9132
515.000000	88.135	-170.8534
522.000000	88.125	-170.7762
530.000000	88.116	-170.6820
538.000000	88.108	-170.6010
545.000000	88.100	-170.5359
552.000000	88.089	-170.4665
560.000000	88.074	-170.3822
570.000000	88.054	-170.2574
580.000000	88.029	-170.0971
590.000000	88.002	-169.8894
600.000000	87.976	-169.6296
608.000000	87.960	-169.3911
615.000000	87.947	-169.1638
622.000000	87.936	-168.9255
630.000000	87.925	-168.6444
640.000000	87.915	-168.2716
650.000000	87.909	-167.8723
660.000000	87.909	-167.4642
670.000000	87.915	-167.0571
680.000000	87.926	-166.6420
690.000000	87.944	-166.2242
700.000000	87.970	-165.8430
710.000000	87.999	-165.5065
720.000000	88.029	-165.2101
730.000000	88.056	-164.9661
740.000000	88.073	-164.7523
750.000000	88.078	-164.4852
762.000000	88.088	-164.0037
775.000000	88.133	-163.4358
788.000000	88.196	-163.0835
800.000000	88.240	-162.9043
812.000000	88.263	-162.6883
825.000000	88.285	-162.3534
838.000000	88.314	-161.9765
850.000000	88.346	-161.6474
862.000000	88.374	-161.3564
875.000000	88.393	-161.0394
885.000000	88.401	-160.7357
900.000000	88.415	-160.1074
912.000000	88.443	-159.4797
925.000000	88.493	-158.7572
938.000000	88.564	-158.0215
950.000000	88.650	-157.3227
962.000000	88.760	-156.6372
975.000000	88.907	-155.9805
988.000000	89.084	-155.5051
1000.000000	89.265	-155.3067
1015.000000	89.492	-155.4179
1030.000000	89.692	-155.8694
1044.000000	89.844	-156.4779
1060.000000	89.979	-157.2313
1075.000000	90.085	-157.9072
1090.000000	90.188	-158.5943
1106.000000	90.294	-159.4651
1120.000000	90.368	-160.3999
1138.000000	90.416	-161.7490
1150.000000	90.419	-162.6575
1172.000000	90.377	-164.3065
1180.000000	90.345	-164.9067
1206.000000	90.161	-166.6975
1220.000000	90.017	-167.4691
1241.000000	89.740	-168.2801
1250.000000	89.601	-168.4075
1265.000000	89.366	-168.2416
1280.000000	89.156	-167.6779
1315.000000	88.802	-165.7024
1320.000000	88.762	-165.3819
1340.000000	88.622	-163.9609
1360.000000	88.531	-162.3198
1380.000000	88.508	-160.6180
1400.000000	88.547	-159.0908
1430.000000	88.647	-157.3196
1450.000000	88.708	-156.2700
1475.000000	88.800	-154.9622
1500.000000	88.922	-153.7608
1525.000000	89.068	-152.7427
1550.000000	89.221	-151.9931
1575.000000	89.358	-151.4609
1600.000000	89.480	-150.9623
1625.000000	89.610	-150.5129
1650.000000	89.740	-150.3052
1675.000000	89.839	-150.3203
1700.000000	89.879	-150.4211
1725.000000	89.853	-150.2405
1750.000000	89.820	-149.5336
1775.000000	89.832	-148.5290
1800.000000	89.882	-147.4884
1825.000000	89.951	-146.4700
1850.000000	90.028	-145.4348
1875.000000	90.113	-144.3269
1900.000000	90.213	-143.0750
1925.000000	90.350	-141.6415
1950.000000	90.551	-140.1506
1975.000000	90.818	-138.8797
2000.000000	91.117	-138.0078
2030.000000	91.473	-137.4349
2060.000000	91.808	-137.2062
2090.000000	92.122	-137.1927
2120.000000	92.414	-137.3015
2140.000000	92.599	-137.3936
2180.000000	92.972	-137.6082
2200.000000	93.160	-137.7990
2240.000000	93.524	-138.3444
2270.000000	93.785	-138.8072
2300.000000	94.049	-139.2578
2330.000000	94.332	-139.7298
2360.000000	94.645	-140.3777
2400.000000	95.076	-141.7627
2430.000000	95.379	-143.1989
2470.000000	95.738	-145.5012
2500.000000	95.972	-147.4443
2540.000000	96.236	-150.3296
2580.000000	96.430	-153.5662
2620.000000	96.527	-157.0370
2650.000000	96.527	-159.6499
2690.000000	96.434	-162.9316
2720.000000	96.311	-165.1356
2760.000000	96.098	-167.7493
2800.000000	95.818	-169.9999
2850.000000	95.378	-171.8265
2900.000000	94.954	-172.3045
2950.000000	94.646	-171.9655
3000.000000	94.458	-171.3929
3040.000000	94.367	-170.9513
3070.000000	94.327	-170.6252
3110.000000	94.316	-170.2368
3150.000000	94.348	-170.0108
3200.000000	94.428	-170.0944
3250.000000	94.519	-170.5973
3300.000000	94.602	-171.4570
3350.000000	94.664	-172.6467
3400.000000	94.689	-174.0970
3450.000000	94.669	-175.7047
3500.000000	94.600	-177.3801
3550.000000	94.486	-179.0001
3600.000000	94.344	179.4817
3650.000000	94.184	177.9600
3700.000000	93.986	176.3627
3750.000000	93.731	174.8508
3820.000000	93.308	173.1102
3870.000000	92.978	172.0275
3950.000000	92.356	170.3867
4000.000000	91.855	169.5597
4060.000000	91.083	169.4880
4120.000000	90.163	171.6730
4180.000000	89.334	176.8673
4250.000000	88.950	-174.5223
4310.000000	89.279	-167.7867
4370.000000	89.901	-163.7775
4440.000000	90.572	-162.1864
4500.000000	90.999	-162.2277
4550.000000	91.258	-162.7174
4620.000000	91.502	-163.7312
4680.000000	91.614	-164.7220
4750.000000	91.641	-165.8268
4820.000000	91.567	-166.6499
4870.000000	91.463	-166.8967
4940.000000	91.285	-166.5378
5000.000000	91.159	-165.5853
5080.000000	91.094	-163.8219
5150.000000	91.124	-162.2068
5220.000000	91.211	-160.6513
5300.000000	91.364	-158.9877
5380.000000	91.556	-157.4291
5450.000000	91.759	-156.0612
5520.000000	92.012	-154.6966
5600.000000	92.378	-153.2255
5700.000000	92.969	-151.8315
5800.000000	93.683	-151.3421
5900.000000	94.489	-152.0545
6000.000000	95.332	-154.3698
6080.000000	95.965	-157.5753
6150.000000	96.433	-161.3510
6220.000000	96.785	-165.8232
6300.000000	97.037	-171.4488
6400.000000	97.145	-179.0489
6500.000000	96.971	172.7864
6600.000000	96.438	164.7452
6700.000000	95.542	157.9293
6800.000000	94.351	153.2579
6900.000000	92.970	151.3455
7000.000000	91.543	152.5067
7100.000000	90.256	156.5834
7200.000000	89.307	162.7427
7300.000000	88.808	169.6638
7400.000000	88.720	176.0800
7500.000000	88.903	-178.7480
7620.000000	89.275	-174.3998
7750.000000	89.680	-171.3583
7880.000000	90.065	-168.9351
8000.000000	90.506	-166.8361
8120.000000	91.103	-165.2411
8250.000000	91.937	-164.6917
8380.000000	92.962	-166.0139
8500.000000	94.029	-169.9791
8620.000000	94.986	-178.0200
8750.000000	95.431	168.3730
8850.000000	95.094	156.5512
9000.000000	93.495	142.6616
9120.000000	91.653	137.5928
9250.000000	89.638	137.7635
9380.000000	88.088	141.4781
9500.000000	87.271	145.0111
9620.000000	86.793	146.5285
9750.000000	86.212	146.1681
9880.000000	85.362	145.5509
10000.000000	84.363	145.9368
10150.000000	82.908	148.5241
10300.000000	81.290	154.3822
10440.000000	79.738	164.0479
10600.000000	78.347	-178.1573
10750.000000	78.814	-155.0175
10900.000000	81.972	-133.1478
11060.000000	85.915	-124.4720
11200.000000	88.366	-131.6118
11380.000000	89.625	-150.6239
11500.000000	89.359	-161.6322
11720.000000	87.952	-166.4653
11800.000000	87.841	-164.3546
12060.000000	89.654	-163.9439
12200.000000	90.423	-172.9128
12410.000000	90.073	170.4606
12500.000000	89.497	165.1784
12650.000000	88.336	159.8104
12800.000000	87.272	157.4929
13150.000000	86.009	152.0981
13200.000000	85.888	150.4175
13400.000000	85.089	141.8271
13600.000000	83.595	134.0749
13800.000000	81.718	129.7969
14000.000000	79.815	128.0197
14300.000000	77.125	129.6283
14500.000000	75.763	132.1662
14750.000000	74.697	132.8404
15000.000000	73.695	126.8581
15250.000000	71.659	117.5244
15500.000000	68.529	107.0705
15750.000000	64.542	81.5484
16000.000000	61.730	25.8425
16250.000000	65.335	-31.4218
16500.000000	69.652	-60.9770
16750.000000	73.028	-76.4733
17000.000000	75.587	-93.4518
17250.000000	76.394	-119.4642
17500.000000	74.411	-139.0586
17750.000000	70.190	-131.8257
18000.000000	66.664	-111.1332
18250.000000	65.492	-94.4318
18500.000000	65.011	-82.5626
18750.000000	64.547	-76.4850
19000.000000	63.473	-77.8526
19250.000000	61.175	-82.4307
19500.000000	57.529	-84.3441
19750.000000	52.866	-82.4927
