* Measurement data measured by REW V5.20.13
* Source: EXCL: Headset (KM-HIFI-384KHZ), MICROPHONE (Master Volume), 0, volume: 1.000
* Format: 256k Log Swept Sine, 1 sweep at -13.0 dBFS with no timing reference
* Dated: Aug 12, 2023 11:25:41 AM
* REW Settings:
*  C-weighting compensation: Off
*  Target level: 75.0 dB
* Note: ; 
* Measurement: Sony XB-500 L
* Smoothing: 1/24 octave
* Frequency Step: 1/48 octave
* Start Frequency: 20.000 Hz
*
* Freq(Hz)	SPL(dB)	Phase(degrees)
20.000000	98.571	-95.6434
20.299999	98.733	-97.1668
20.600000	98.886	-98.7686
20.900000	99.022	-100.4178
21.200001	99.139	-102.0574
21.400000	99.206	-103.1130
21.799999	99.327	-105.0875
22.000000	99.386	-106.0027
22.400000	99.509	-107.7254
22.700001	99.610	-108.9793
23.000000	99.715	-110.2448
23.299999	99.819	-111.5432
23.600000	99.917	-112.8734
24.000000	100.035	-114.6660
24.299999	100.113	-116.0008
24.700001	100.206	-117.7505
25.000000	100.268	-119.0430
25.400000	100.342	-120.7494
25.799999	100.404	-122.4371
26.200001	100.455	-124.0936
26.500000	100.488	-125.3099
26.900000	100.526	-126.9057
27.200001	100.552	-128.0980
27.600000	100.581	-129.7034
28.000000	100.597	-131.3266
28.500000	100.593	-133.3240
29.000000	100.565	-135.1760
29.500000	100.526	-136.8187
30.000000	100.492	-138.2819
30.400000	100.470	-139.3645
30.700001	100.453	-140.1294
31.100000	100.430	-141.0624
31.500000	100.408	-141.8521
32.000000	100.398	-142.6089
32.500000	100.431	-143.1863
33.000000	100.515	-143.7786
33.500000	100.637	-144.5674
34.000000	100.772	-145.6362
34.500000	100.899	-146.9670
35.000000	101.006	-148.4966
35.500000	101.087	-150.1676
36.000000	101.141	-151.9299
36.500000	101.167	-153.7269
37.000000	101.167	-155.4963
37.500000	101.152	-157.1988
38.200001	101.125	-159.5171
38.700001	101.102	-161.2166
39.500000	101.032	-164.0740
40.000000	100.954	-165.8386
40.599998	100.834	-167.7975
41.200001	100.705	-169.5942
41.799999	100.571	-171.3282
42.500000	100.394	-173.3187
43.099998	100.217	-174.9422
43.700001	100.020	-176.4684
44.400002	99.765	-178.1499
45.000000	99.517	-179.4751
45.500000	99.290	179.5488
46.200001	98.950	178.4103
46.799999	98.641	177.6536
47.500000	98.264	177.0624
48.200001	97.877	176.8228
48.700001	97.600	176.8596
49.400002	97.211	177.1967
50.000000	96.873	177.8122
50.799999	96.429	179.2834
51.500000	96.088	-178.7566
52.200001	95.833	-176.3422
53.000000	95.656	-173.3432
53.799999	95.592	-170.2672
54.500000	95.627	-167.6320
55.200001	95.739	-165.2281
56.000000	95.927	-162.8826
57.000000	96.214	-160.4713
58.000000	96.545	-158.6013
59.000000	96.885	-157.2733
60.000000	97.222	-156.1588
60.799999	97.528	-155.3392
61.500000	97.832	-154.8463
62.200001	98.150	-154.6651
63.000000	98.511	-154.8060
64.000000	98.945	-155.3829
65.000000	99.356	-156.3067
66.000000	99.740	-157.5283
67.000000	100.090	-159.0284
68.000000	100.399	-160.7319
69.000000	100.675	-162.5757
70.000000	100.922	-164.5695
71.000000	101.133	-166.7135
72.000000	101.307	-168.9232
73.000000	101.449	-171.1246
74.000000	101.563	-173.3035
75.000000	101.651	-175.4463
76.199997	101.719	-177.9510
77.500000	101.747	179.4624
78.800003	101.742	177.0515
80.000000	101.717	174.9891
81.199997	101.689	173.1500
82.500000	101.682	171.3237
83.800003	101.703	169.5381
85.000000	101.744	167.8263
86.199997	101.793	165.9453
87.500000	101.845	163.6713
88.500000	101.875	161.7012
90.000000	101.882	158.3724
91.199997	101.838	155.4274
92.500000	101.723	152.0602
93.800003	101.526	148.6064
95.000000	101.257	145.4299
96.199997	100.890	142.4009
97.500000	100.373	139.5327
98.800003	99.731	137.4691
100.000000	99.052	136.6892
101.500000	98.179	137.7102
103.000000	97.460	140.9335
104.400002	97.105	145.0770
106.000000	97.116	149.4966
107.500000	97.390	152.2851
109.000000	97.764	153.5195
110.599998	98.153	153.3206
112.000000	98.425	152.2501
113.800003	98.658	150.2231
115.000000	98.744	148.6525
117.199997	98.766	145.6392
118.000000	98.740	144.5940
120.599998	98.594	141.4178
122.000000	98.478	139.7423
124.099998	98.232	137.3616
125.000000	98.099	136.4587
126.500000	97.851	135.1890
128.000000	97.586	134.2604
131.500000	97.003	133.4511
132.000000	96.933	133.4551
134.000000	96.700	133.5827
136.000000	96.537	133.6414
138.000000	96.413	133.4307
140.000000	96.290	133.0689
143.000000	96.098	132.4587
145.000000	95.956	131.9866
147.500000	95.760	131.3774
150.000000	95.567	130.7820
152.500000	95.352	130.2104
155.000000	95.117	129.9272
157.500000	94.883	129.8486
160.000000	94.653	129.9514
162.500000	94.447	130.3223
165.000000	94.302	130.8315
167.500000	94.224	131.4316
170.000000	94.210	132.0011
172.500000	94.269	132.2745
175.000000	94.364	131.8425
177.500000	94.446	130.6419
180.000000	94.452	128.8442
182.500000	94.358	126.8462
185.000000	94.176	124.8901
187.500000	93.926	123.2028
190.000000	93.638	121.8431
192.500000	93.315	120.8542
195.000000	92.987	120.2678
197.500000	92.673	119.8380
200.000000	92.357	119.5189
203.000000	91.990	119.4771
206.000000	91.652	119.6454
209.000000	91.314	119.7883
212.000000	90.978	120.0008
214.000000	90.767	120.2689
218.000000	90.372	121.0607
220.000000	90.186	121.5171
224.000000	89.818	122.5753
227.000000	89.535	123.6331
230.000000	89.275	124.7810
233.000000	89.055	125.8718
236.000000	88.848	126.9704
240.000000	88.586	128.6307
243.000000	88.436	129.9796
247.000000	88.289	131.6656
250.000000	88.193	132.7281
254.000000	88.067	133.9503
258.000000	87.949	135.2236
262.000000	87.842	136.5174
265.000000	87.782	137.3988
269.000000	87.722	138.4557
272.000000	87.673	139.1328
276.000000	87.599	139.8286
280.000000	87.532	140.5892
285.000000	87.438	141.7315
290.000000	87.340	142.6840
295.000000	87.222	143.6189
300.000000	87.102	144.4919
304.000000	87.008	145.2623
307.000000	86.936	145.8690
311.000000	86.840	146.7076
315.000000	86.735	147.5775
320.000000	86.618	148.7072
325.000000	86.538	149.9001
330.000000	86.460	151.1087
335.000000	86.357	152.3717
340.000000	86.259	153.6826
345.000000	86.172	155.0065
350.000000	86.102	156.5413
355.000000	86.067	158.1516
360.000000	86.033	159.6986
365.000000	86.025	161.3845
370.000000	86.076	163.0987
375.000000	86.160	164.7119
382.000000	86.313	166.6574
387.000000	86.450	167.9070
395.000000	86.715	169.4713
400.000000	86.888	170.0735
406.000000	87.093	170.5131
412.000000	87.270	170.7055
418.000000	87.410	170.7505
425.000000	87.569	170.6833
431.000000	87.700	170.4889
437.000000	87.793	170.1434
444.000000	87.818	169.5759
450.000000	87.796	169.1990
455.000000	87.762	169.0094
462.000000	87.690	168.8076
468.000000	87.633	168.8271
475.000000	87.603	169.2027
482.000000	87.614	169.6769
487.000000	87.639	170.0959
494.000000	87.659	170.7317
500.000000	87.678	171.2376
508.000000	87.750	171.7873
515.000000	87.842	172.1300
522.000000	87.940	172.3323
530.000000	88.055	172.3663
538.000000	88.186	172.1770
545.000000	88.282	171.7733
552.000000	88.336	171.2895
560.000000	88.367	170.7683
570.000000	88.407	170.1433
580.000000	88.466	169.4251
590.000000	88.527	168.5929
600.000000	88.574	167.5323
608.000000	88.599	166.4550
615.000000	88.601	165.3414
622.000000	88.576	164.0779
630.000000	88.506	162.5197
640.000000	88.351	160.5508
650.000000	88.122	158.6339
660.000000	87.821	156.9237
670.000000	87.458	155.5172
680.000000	87.056	154.4088
690.000000	86.614	153.5648
700.000000	86.106	153.0522
710.000000	85.529	153.2399
720.000000	84.965	154.5524
730.000000	84.523	156.3371
740.000000	84.149	157.8063
750.000000	83.746	159.2505
762.000000	83.226	161.5516
775.000000	82.673	164.7334
788.000000	82.163	168.6659
800.000000	81.784	173.0784
812.000000	81.542	177.9118
825.000000	81.429	-176.8760
838.000000	81.432	-171.7566
850.000000	81.541	-167.1668
862.000000	81.766	-162.9579
875.000000	82.087	-159.0197
885.000000	82.366	-156.3502
900.000000	82.866	-152.9591
912.000000	83.318	-151.2140
925.000000	83.747	-150.5553
938.000000	84.021	-150.7177
950.000000	84.133	-151.1209
962.000000	84.087	-151.5049
975.000000	83.819	-151.0208
988.000000	83.438	-148.3949
1000.000000	83.218	-143.8757
1015.000000	83.408	-136.9791
1030.000000	84.054	-131.3929
1044.000000	84.759	-128.3154
1060.000000	85.461	-126.3840
1075.000000	86.047	-124.9011
1090.000000	86.656	-123.7524
1106.000000	87.292	-123.3657
1120.000000	87.784	-123.5449
1138.000000	88.318	-124.1259
1150.000000	88.618	-124.5408
1172.000000	89.114	-125.1839
1180.000000	89.280	-125.4217
1206.000000	89.764	-125.9986
1220.000000	90.018	-126.1322
1241.000000	90.417	-126.2335
1250.000000	90.599	-126.2764
1265.000000	90.916	-126.4351
1280.000000	91.243	-126.7639
1315.000000	91.998	-128.3182
1320.000000	92.100	-128.6294
1340.000000	92.481	-130.0495
1360.000000	92.814	-131.6898
1380.000000	93.092	-133.4339
1400.000000	93.324	-135.1798
1430.000000	93.603	-137.7411
1450.000000	93.743	-139.3893
1475.000000	93.862	-141.2743
1500.000000	93.936	-142.7470
1525.000000	94.010	-143.8099
1550.000000	94.094	-144.5264
1575.000000	94.250	-144.8247
1600.000000	94.504	-145.4985
1625.000000	94.751	-146.7512
1650.000000	94.962	-148.3110
1675.000000	95.127	-150.0380
1700.000000	95.247	-151.8006
1725.000000	95.330	-153.5069
1750.000000	95.387	-155.1133
1775.000000	95.427	-156.6111
1800.000000	95.458	-158.0223
1825.000000	95.479	-159.3846
1850.000000	95.488	-160.7018
1875.000000	95.483	-161.9559
1900.000000	95.466	-163.1314
1925.000000	95.442	-164.2256
1950.000000	95.411	-165.2452
1975.000000	95.377	-166.1830
2000.000000	95.339	-167.0475
2030.000000	95.294	-168.0229
2060.000000	95.243	-168.9486
2090.000000	95.182	-169.8072
2120.000000	95.107	-170.5788
2140.000000	95.043	-171.0173
2180.000000	94.882	-171.2765
2200.000000	94.842	-170.8736
2240.000000	95.005	-170.4322
2270.000000	95.133	-171.3157
2300.000000	95.167	-172.3909
2330.000000	95.161	-173.2799
2360.000000	95.148	-174.0088
2400.000000	95.136	-174.8341
2430.000000	95.134	-175.4115
2470.000000	95.144	-176.1924
2500.000000	95.160	-176.8134
2540.000000	95.185	-177.7155
2580.000000	95.213	-178.7083
2620.000000	95.244	-179.7944
2650.000000	95.268	179.3251
2690.000000	95.300	178.0325
2720.000000	95.323	176.9407
2760.000000	95.350	175.2741
2800.000000	95.359	173.3374
2850.000000	95.321	170.5466
2900.000000	95.212	167.4140
2950.000000	95.012	164.0817
3000.000000	94.718	160.6594
3040.000000	94.411	157.8588
3070.000000	94.132	155.7616
3110.000000	93.692	153.0103
3150.000000	93.166	150.3370
3200.000000	92.360	147.2407
3250.000000	91.364	144.7660
3300.000000	90.160	143.4594
3350.000000	88.764	143.9317
3400.000000	87.220	146.7285
3450.000000	85.584	152.3879
3500.000000	83.917	161.8297
3550.000000	82.429	176.4761
3600.000000	81.829	-163.5066
3650.000000	83.004	-142.2200
3700.000000	85.446	-126.1368
3750.000000	88.050	-118.1459
3820.000000	91.111	-117.6605
3870.000000	92.778	-121.7306
3950.000000	94.619	-131.5736
4000.000000	95.325	-138.4171
4060.000000	95.792	-146.4806
4120.000000	95.887	-153.8147
4180.000000	95.655	-159.6456
4250.000000	95.097	-163.4068
4310.000000	94.617	-163.2774
4370.000000	94.480	-161.0207
4440.000000	94.833	-158.5974
4500.000000	95.338	-157.9527
4550.000000	95.780	-158.3284
4620.000000	96.378	-159.7655
4680.000000	96.871	-161.5667
4750.000000	97.433	-164.2276
4820.000000	97.983	-167.5846
4870.000000	98.352	-170.5149
4940.000000	98.791	-175.4055
5000.000000	99.057	179.8511
5080.000000	99.242	173.3059
5150.000000	99.296	167.5957
5220.000000	99.257	161.7378
5300.000000	99.045	154.8445
5380.000000	98.607	148.1437
5450.000000	98.042	143.0619
5520.000000	97.362	139.1532
5600.000000	96.548	136.1644
5700.000000	95.603	134.0864
5800.000000	94.804	133.0188
5900.000000	94.128	132.1718
6000.000000	93.480	131.4423
6080.000000	92.979	131.2611
6150.000000	92.600	131.2977
6220.000000	92.290	131.1289
6300.000000	91.961	130.3330
6400.000000	91.463	128.6822
6500.000000	90.827	127.0145
6600.000000	90.077	125.5944
6700.000000	89.191	124.5726
6800.000000	88.152	124.5896
6900.000000	87.025	126.1225
7000.000000	85.891	129.2796
7100.000000	84.830	133.9660
7200.000000	83.905	140.0488
7300.000000	83.201	147.2143
7400.000000	82.762	154.8609
7500.000000	82.593	162.5390
7620.000000	82.718	171.0358
7750.000000	83.105	178.8676
7880.000000	83.691	-174.2411
8000.000000	84.483	-168.8304
8120.000000	85.481	-165.1190
8250.000000	86.677	-163.4023
8380.000000	87.917	-164.0678
8500.000000	89.070	-166.8691
8620.000000	90.177	-172.1404
8750.000000	91.215	178.9013
8850.000000	91.800	169.3778
9000.000000	92.046	150.5504
9120.000000	91.431	132.6177
9250.000000	89.742	113.1021
9380.000000	86.917	97.1337
9500.000000	83.249	91.6170
9620.000000	78.495	109.9344
9750.000000	73.667	164.4421
9880.000000	74.814	-148.4530
10000.000000	77.597	-132.3557
10150.000000	80.164	-127.7965
10300.000000	82.083	-125.9814
10440.000000	83.685	-124.2046
10600.000000	85.590	-122.5297
10750.000000	87.525	-122.7408
10900.000000	89.506	-126.1796
11060.000000	91.451	-134.9708
11200.000000	92.615	-148.3827
11380.000000	92.633	-170.5177
11500.000000	91.596	177.3446
11720.000000	88.350	169.5589
11800.000000	87.045	171.4177
12060.000000	84.216	-168.2288
12200.000000	85.056	-154.4930
12410.000000	88.096	-147.7681
12500.000000	89.161	-151.9642
12650.000000	90.083	-165.8372
12800.000000	89.820	177.3774
13150.000000	85.268	158.6910
13200.000000	84.289	160.8761
13400.000000	80.959	-176.5063
13600.000000	82.131	-149.6093
13800.000000	85.178	-140.5342
14000.000000	87.264	-146.5337
14300.000000	88.752	-161.6719
14500.000000	89.437	-171.1438
14750.000000	90.216	172.4053
15000.000000	89.634	148.1127
15250.000000	86.885	129.1815
15500.000000	82.776	120.7751
15750.000000	78.043	109.1224
16000.000000	74.151	58.9771
16250.000000	77.975	-25.7091
16500.000000	82.461	-81.1726
16750.000000	85.027	-110.2898
17000.000000	86.899	-131.3423
17250.000000	87.771	-156.8804
17500.000000	87.089	175.0960
17750.000000	84.823	152.9731
18000.000000	81.418	141.3217
18250.000000	77.436	140.4850
18500.000000	72.978	154.9304
18750.000000	69.476	177.7116
19000.000000	68.447	-168.1248
19250.000000	67.654	-168.5025
19500.000000	65.297	-173.8879
19750.000000	61.333	-175.1273
