* Measurement data measured by REW V5.20.13
* Source: Headset (KM-HIFI-384KHZ), MICROPHONE (Master Volume), R, volume: 0.250
* Format: 256k Log Swept Sine, 1 sweep at -13.0 dBFS with no timing reference
* Dated: Jul 19, 2023 2:58:10 AM
* REW Settings:
*  C-weighting compensation: Off
*  Target level: 75.0 dB
* Note: ; 
* Measurement: Zeus R
* Smoothing: 1/24 octave
* Frequency Step: 1/48 octave
* Start Frequency: 20.000 Hz
*
* Freq(Hz)	SPL(dB)	Phase(degrees)
20.000000	88.009	-77.2704
20.299999	88.187	-77.9862
20.600000	88.355	-78.7168
20.900000	88.512	-79.4262
21.200001	88.663	-80.0858
21.400000	88.764	-80.5015
21.799999	88.969	-81.3175
22.000000	89.072	-81.7414
22.400000	89.273	-82.6602
22.700001	89.410	-83.3953
23.000000	89.530	-84.1126
23.299999	89.638	-84.7452
23.600000	89.743	-85.2625
24.000000	89.897	-85.7981
24.299999	90.033	-86.1729
24.700001	90.236	-86.7832
25.000000	90.390	-87.3853
25.400000	90.577	-88.3553
25.799999	90.731	-89.3700
26.200001	90.861	-90.2739
26.500000	90.955	-90.8489
26.900000	91.088	-91.5260
27.200001	91.195	-92.0268
27.600000	91.338	-92.7347
28.000000	91.472	-93.4628
28.500000	91.624	-94.2814
29.000000	91.782	-94.9372
29.500000	91.960	-95.5397
30.000000	92.151	-96.2429
30.400000	92.297	-96.8926
30.700001	92.398	-97.3996
31.100000	92.524	-98.0599
31.500000	92.643	-98.6899
32.000000	92.787	-99.4567
32.500000	92.921	-100.2116
33.000000	93.045	-100.9138
33.500000	93.168	-101.5359
34.000000	93.302	-102.1334
34.500000	93.441	-102.8003
35.000000	93.572	-103.5569
35.500000	93.686	-104.3246
36.000000	93.791	-105.0162
36.500000	93.901	-105.6283
37.000000	94.022	-106.2322
37.500000	94.148	-106.8881
38.200001	94.318	-107.8809
38.700001	94.433	-108.5923
39.500000	94.614	-109.7161
40.000000	94.725	-110.4422
40.599998	94.850	-111.3491
41.200001	94.964	-112.2762
41.799999	95.065	-113.2077
42.500000	95.166	-114.2796
43.099998	95.239	-115.1592
43.700001	95.305	-115.9944
44.400002	95.374	-116.9109
45.000000	95.430	-117.6171
45.500000	95.484	-118.1478
46.200001	95.578	-118.9038
46.799999	95.664	-119.6594
47.500000	95.748	-120.6021
48.200001	95.823	-121.4999
48.700001	95.876	-122.1657
49.400002	95.926	-123.2064
50.000000	95.923	-124.0279
50.799999	95.884	-124.6445
51.500000	95.878	-124.8208
52.200001	95.905	-124.9930
53.000000	95.937	-125.2781
53.799999	95.966	-125.5414
54.500000	95.995	-125.7590
55.200001	96.029	-125.9894
56.000000	96.071	-126.2672
57.000000	96.129	-126.6273
58.000000	96.193	-126.9362
59.000000	96.273	-127.1952
60.000000	96.366	-127.4314
60.799999	96.452	-127.6103
61.500000	96.536	-127.7954
62.200001	96.625	-128.0382
63.000000	96.726	-128.3983
64.000000	96.847	-128.9565
65.000000	96.962	-129.6168
66.000000	97.069	-130.3912
67.000000	97.160	-131.2599
68.000000	97.232	-132.1596
69.000000	97.279	-133.0193
70.000000	97.301	-133.7283
71.000000	97.313	-134.1806
72.000000	97.337	-134.3804
73.000000	97.387	-134.4346
74.000000	97.466	-134.4577
75.000000	97.572	-134.5354
76.199997	97.724	-134.7958
77.500000	97.902	-135.3515
78.800003	98.071	-136.1593
80.000000	98.210	-137.0446
81.199997	98.331	-137.9972
82.500000	98.442	-139.0681
83.800003	98.536	-140.1642
85.000000	98.609	-141.1967
86.199997	98.668	-142.2494
87.500000	98.719	-143.3951
88.500000	98.750	-144.2594
90.000000	98.784	-145.5168
91.199997	98.797	-146.4816
92.500000	98.794	-147.4487
93.800003	98.773	-148.3142
95.000000	98.734	-148.9952
96.199997	98.680	-149.5107
97.500000	98.615	-149.8352
98.800003	98.559	-149.9083
100.000000	98.530	-149.7935
101.500000	98.542	-149.5486
103.000000	98.606	-149.4061
104.400002	98.692	-149.5289
106.000000	98.791	-149.9609
107.500000	98.872	-150.5699
109.000000	98.931	-151.2942
110.599998	98.968	-152.0875
112.000000	98.981	-152.7348
113.800003	98.978	-153.4507
115.000000	98.971	-153.8198
117.199997	98.975	-154.3024
118.000000	98.984	-154.4450
120.599998	99.048	-154.8983
122.000000	99.097	-155.1797
124.099998	99.180	-155.6905
125.000000	99.214	-155.9443
126.500000	99.267	-156.3954
128.000000	99.313	-156.8682
131.500000	99.393	-158.0698
132.000000	99.402	-158.2518
134.000000	99.431	-158.9986
136.000000	99.452	-159.7599
138.000000	99.469	-160.4976
140.000000	99.482	-161.1965
143.000000	99.496	-162.1488
145.000000	99.502	-162.7115
147.500000	99.505	-163.3586
150.000000	99.506	-163.9583
152.500000	99.507	-164.5394
155.000000	99.511	-165.0714
157.500000	99.524	-165.5748
160.000000	99.542	-166.0954
162.500000	99.558	-166.6278
165.000000	99.572	-167.1808
167.500000	99.585	-167.7530
170.000000	99.597	-168.3369
172.500000	99.607	-168.9263
175.000000	99.616	-169.5434
177.500000	99.620	-170.1898
180.000000	99.619	-170.8640
182.500000	99.608	-171.5686
185.000000	99.581	-172.2885
187.500000	99.530	-172.9929
190.000000	99.448	-173.5588
192.500000	99.349	-173.7906
195.000000	99.278	-173.6447
197.500000	99.269	-173.3750
200.000000	99.308	-173.2896
203.000000	99.371	-173.5416
206.000000	99.417	-174.0496
209.000000	99.440	-174.6624
212.000000	99.442	-175.3043
214.000000	99.433	-175.7375
218.000000	99.389	-176.5771
220.000000	99.353	-176.9404
224.000000	99.269	-177.3966
227.000000	99.229	-177.4878
230.000000	99.229	-177.5592
233.000000	99.250	-177.7757
236.000000	99.266	-178.1262
240.000000	99.265	-178.6376
243.000000	99.254	-178.9822
247.000000	99.244	-179.4277
250.000000	99.241	-179.8120
254.000000	99.233	179.6263
258.000000	99.214	179.0571
262.000000	99.185	178.5047
265.000000	99.159	178.1223
269.000000	99.123	177.6572
272.000000	99.095	177.3283
276.000000	99.058	176.9091
280.000000	99.022	176.5019
285.000000	98.980	175.9991
290.000000	98.935	175.4898
295.000000	98.880	174.9973
300.000000	98.816	174.5771
304.000000	98.768	174.2973
307.000000	98.735	174.1023
311.000000	98.692	173.8324
315.000000	98.649	173.5567
320.000000	98.590	173.2534
325.000000	98.530	173.0039
330.000000	98.476	172.7809
335.000000	98.423	172.6091
340.000000	98.380	172.5108
345.000000	98.356	172.4298
350.000000	98.351	172.2540
355.000000	98.349	171.9171
360.000000	98.334	171.4481
365.000000	98.298	170.9189
370.000000	98.240	170.4155
375.000000	98.169	169.9952
382.000000	98.062	169.5563
387.000000	97.988	169.3150
395.000000	97.872	168.9551
400.000000	97.796	168.7715
406.000000	97.702	168.6060
412.000000	97.606	168.5092
418.000000	97.512	168.4880
425.000000	97.410	168.5267
431.000000	97.327	168.5999
437.000000	97.244	168.7196
444.000000	97.151	168.9578
450.000000	97.084	169.2342
455.000000	97.040	169.4749
462.000000	96.988	169.8056
468.000000	96.949	170.0862
475.000000	96.913	170.4176
482.000000	96.889	170.7645
487.000000	96.880	171.0058
494.000000	96.876	171.3174
500.000000	96.882	171.5716
508.000000	96.904	171.8651
515.000000	96.936	172.0363
522.000000	96.975	172.1105
530.000000	97.023	172.0835
538.000000	97.074	171.9357
545.000000	97.117	171.6971
552.000000	97.155	171.3631
560.000000	97.191	170.8813
570.000000	97.226	170.0786
580.000000	97.226	168.9145
590.000000	97.127	167.5245
600.000000	96.896	166.6612
608.000000	96.700	166.9000
615.000000	96.616	167.5005
622.000000	96.614	167.9093
630.000000	96.641	167.9241
640.000000	96.651	167.4740
650.000000	96.617	166.7927
660.000000	96.546	166.0569
670.000000	96.442	165.2121
680.000000	96.273	164.2623
690.000000	95.993	163.5048
700.000000	95.609	163.7582
710.000000	95.277	165.5197
720.000000	95.177	167.9040
730.000000	95.266	169.5990
740.000000	95.389	170.3253
750.000000	95.473	170.5139
762.000000	95.518	170.4835
775.000000	95.519	170.4158
788.000000	95.502	170.4348
800.000000	95.489	170.4741
812.000000	95.474	170.4577
825.000000	95.447	170.3635
838.000000	95.402	170.3288
850.000000	95.369	170.3829
862.000000	95.348	170.3975
875.000000	95.339	170.2785
885.000000	95.325	170.0062
900.000000	95.261	169.4727
912.000000	95.179	169.0920
925.000000	95.066	168.7471
938.000000	94.933	168.5433
950.000000	94.802	168.5016
962.000000	94.672	168.5977
975.000000	94.542	168.7763
988.000000	94.416	168.9628
1000.000000	94.296	169.1730
1015.000000	94.146	169.4993
1030.000000	93.995	169.8657
1044.000000	93.853	170.2472
1060.000000	93.673	170.7280
1075.000000	93.490	171.4333
1090.000000	93.332	172.3438
1106.000000	93.191	173.3162
1120.000000	93.071	174.1061
1138.000000	92.898	175.1547
1150.000000	92.773	175.9609
1172.000000	92.539	177.8015
1180.000000	92.458	178.6157
1206.000000	92.276	-178.2235
1220.000000	92.251	-176.4956
1241.000000	92.258	-174.2301
1250.000000	92.263	-173.3372
1265.000000	92.274	-171.8641
1280.000000	92.296	-170.3505
1315.000000	92.390	-167.0372
1320.000000	92.403	-166.5452
1340.000000	92.489	-164.5050
1360.000000	92.630	-162.5627
1380.000000	92.798	-160.9001
1400.000000	92.972	-159.3622
1430.000000	93.285	-157.3939
1450.000000	93.497	-156.4099
1475.000000	93.764	-155.5070
1500.000000	94.000	-155.0899
1525.000000	94.156	-154.8766
1550.000000	94.236	-154.4203
1575.000000	94.311	-153.4311
1600.000000	94.448	-152.1909
1625.000000	94.652	-151.1314
1650.000000	94.865	-150.5099
1675.000000	95.046	-150.2138
1700.000000	95.169	-150.1100
1725.000000	95.221	-149.9129
1750.000000	95.215	-149.3579
1775.000000	95.175	-148.1654
1800.000000	95.162	-146.0841
1825.000000	95.303	-143.2111
1850.000000	95.664	-140.5675
1875.000000	96.122	-139.0862
1900.000000	96.508	-138.6401
1925.000000	96.798	-138.2567
1950.000000	97.082	-137.5631
1975.000000	97.405	-136.7960
2000.000000	97.764	-136.2475
2030.000000	98.186	-135.9592
2060.000000	98.594	-135.7898
2090.000000	99.027	-135.6748
2120.000000	99.486	-135.9238
2140.000000	99.783	-136.3431
2180.000000	100.334	-137.5011
2200.000000	100.583	-138.1880
2240.000000	101.028	-139.5394
2270.000000	101.341	-140.4551
2300.000000	101.663	-141.2614
2330.000000	102.016	-142.0658
2360.000000	102.396	-143.0622
2400.000000	102.916	-144.8987
2430.000000	103.268	-146.6268
2470.000000	103.707	-148.9377
2500.000000	104.047	-150.7769
2540.000000	104.499	-153.6420
2580.000000	104.905	-157.0070
2620.000000	105.246	-160.6432
2650.000000	105.469	-163.4488
2690.000000	105.737	-167.3088
2720.000000	105.917	-170.3721
2760.000000	106.105	-174.7206
2800.000000	106.217	-179.2356
2850.000000	106.261	175.1522
2900.000000	106.242	169.5967
2950.000000	106.167	163.7089
3000.000000	105.949	157.4283
3040.000000	105.639	152.4461
3070.000000	105.329	148.9149
3110.000000	104.824	144.6339
3150.000000	104.231	141.0025
3200.000000	103.408	137.4984
3250.000000	102.529	135.1703
3300.000000	101.622	134.3098
3350.000000	100.822	135.0641
3400.000000	100.271	136.1605
3450.000000	99.830	136.5937
3500.000000	99.355	136.8202
3550.000000	98.833	137.5105
3600.000000	98.335	138.9212
3650.000000	97.932	140.8241
3700.000000	97.634	142.9500
3750.000000	97.436	145.1988
3820.000000	97.382	148.2661
3870.000000	97.515	149.6439
3950.000000	97.739	149.0286
4000.000000	97.653	147.4992
4060.000000	97.272	146.6907
4120.000000	96.897	148.1520
4180.000000	96.819	150.3333
4250.000000	96.977	151.5409
4310.000000	97.122	151.2297
4370.000000	97.183	150.0438
4440.000000	97.091	148.1768
4500.000000	96.858	146.7684
4550.000000	96.587	146.1633
4620.000000	96.192	146.3325
4680.000000	95.906	147.2283
4750.000000	95.695	148.7574
4820.000000	95.626	150.1225
4870.000000	95.619	150.7480
4940.000000	95.616	151.2303
5000.000000	95.604	151.4175
5080.000000	95.565	151.5629
5150.000000	95.551	151.7267
5220.000000	95.568	151.3954
5300.000000	95.472	150.3547
5380.000000	95.191	149.7165
5450.000000	94.842	150.3900
5520.000000	94.571	152.6252
5600.000000	94.558	155.9697
5700.000000	94.959	159.2933
5800.000000	95.550	160.2773
5900.000000	96.080	159.5256
6000.000000	96.594	157.9257
6080.000000	97.024	155.7190
6150.000000	97.371	152.7854
6220.000000	97.621	148.8114
6300.000000	97.694	143.4030
6400.000000	97.437	136.7565
6500.000000	96.936	131.2603
6600.000000	96.337	126.6521
6700.000000	95.656	122.4524
6800.000000	94.865	118.4104
6900.000000	93.857	114.6400
7000.000000	92.518	112.9126
7100.000000	91.046	114.8788
7200.000000	89.846	119.7023
7300.000000	89.129	124.9952
7400.000000	88.718	129.0751
7500.000000	88.362	132.0760
7620.000000	87.891	135.3219
7750.000000	87.389	139.0739
7880.000000	86.954	142.8120
8000.000000	86.556	146.3643
8120.000000	86.228	150.6472
8250.000000	86.177	155.2221
8380.000000	86.369	156.8920
8500.000000	86.224	154.6493
8620.000000	85.227	152.5986
8750.000000	83.193	162.4247
8850.000000	82.803	-177.6194
9000.000000	85.954	-155.4616
9120.000000	88.215	-155.8786
9250.000000	89.716	-163.6959
9380.000000	90.525	-173.0894
9500.000000	90.781	178.1964
9620.000000	90.643	170.2647
9750.000000	90.149	163.2292
9880.000000	89.414	158.2510
10000.000000	88.643	155.5717
10150.000000	87.724	154.3402
10300.000000	86.974	154.4775
10440.000000	86.450	155.0416
10600.000000	86.046	155.6061
10750.000000	85.892	155.1404
10900.000000	85.883	151.6395
11060.000000	85.579	142.3546
11200.000000	84.531	130.5150
11380.000000	81.437	120.9276
11500.000000	78.146	128.7158
11720.000000	71.504	-179.5125
11800.000000	70.908	-156.9272
12060.000000	75.350	-106.6453
12200.000000	78.488	-91.9901
12410.000000	83.863	-78.1089
12500.000000	86.230	-76.0196
12650.000000	89.690	-80.9059
12800.000000	92.044	-97.1192
13150.000000	92.157	-149.0129
13200.000000	91.623	-154.1967
13400.000000	88.575	-163.1054
13600.000000	85.173	-152.8067
13800.000000	84.069	-134.2220
14000.000000	85.511	-120.8934
14300.000000	88.847	-115.8079
14500.000000	91.102	-121.6419
14750.000000	92.984	-141.0696
15000.000000	92.926	-167.6227
15250.000000	90.958	173.0224
15500.000000	88.293	166.2497
15750.000000	86.348	164.2116
16000.000000	84.929	160.4771
16250.000000	83.233	155.3005
16500.000000	80.678	153.7715
16750.000000	77.151	172.2274
17000.000000	76.930	-149.1410
17250.000000	79.900	-133.5114
17500.000000	80.966	-143.0933
17750.000000	80.232	-152.1240
18000.000000	78.642	-152.6685
18250.000000	76.952	-146.0004
18500.000000	75.770	-134.5849
18750.000000	75.548	-121.8589
19000.000000	76.182	-111.3534
19250.000000	77.354	-104.5477
19500.000000	78.830	-102.2159
19750.000000	80.231	-104.4592
