* Freq(Hz)	SPL(dB)
20.000000	4.814
20.299999	4.805
20.600000	4.794
20.900000	4.782
21.200001	4.771
21.400000	4.764
21.799999	4.749
22.000000	4.741
22.400000	4.727
22.700001	4.716
23.000000	4.706
23.299999	4.696
23.600000	4.686
24.000000	4.672
24.299999	4.663
24.700001	4.650
25.000000	4.640
25.400000	4.628
25.799999	4.615
26.200001	4.602
26.500000	4.593
26.900000	4.580
27.200001	4.571
27.600000	4.557
28.000000	4.544
28.500000	4.528
29.000000	4.512
29.500000	4.495
30.000000	4.480
30.400000	4.467
30.700001	4.457
31.100000	4.444
31.500000	4.431
32.000000	4.414
32.500000	4.397
33.000000	4.381
33.500000	4.365
34.000000	4.349
34.500000	4.332
35.000000	4.316
35.500000	4.301
36.000000	4.285
36.500000	4.270
37.000000	4.254
37.500000	4.239
38.200001	4.219
38.700001	4.204
39.500000	4.182
40.000000	4.168
40.599998	4.152
41.200001	4.136
41.799999	4.121
42.500000	4.103
43.099998	4.088
43.700001	4.074
44.400002	4.058
45.000000	4.044
45.500000	4.033
46.200001	4.018
46.799999	4.005
47.500000	3.991
48.200001	3.977
48.700001	3.967
49.400002	3.953
50.000000	3.941
50.799999	3.926
51.500000	3.913
52.200001	3.900
53.000000	3.885
53.799999	3.871
54.500000	3.859
55.200001	3.846
56.000000	3.832
57.000000	3.815
58.000000	3.797
59.000000	3.780
60.000000	3.763
60.799999	3.749
61.500000	3.737
62.200001	3.724
63.000000	3.710
64.000000	3.693
65.000000	3.676
66.000000	3.660
67.000000	3.643
68.000000	3.626
69.000000	3.609
70.000000	3.592
71.000000	3.575
72.000000	3.557
73.000000	3.540
74.000000	3.523
75.000000	3.506
76.199997	3.486
77.500000	3.465
78.800003	3.443
80.000000	3.423
81.199997	3.404
82.500000	3.383
83.800003	3.363
85.000000	3.344
86.199997	3.326
87.500000	3.306
88.500000	3.290
90.000000	3.267
91.199997	3.249
92.500000	3.229
93.800003	3.210
95.000000	3.191
96.199997	3.173
97.500000	3.153
98.800003	3.133
100.000000	3.114
101.500000	3.091
103.000000	3.067
104.400002	3.045
106.000000	3.020
107.500000	2.996
109.000000	2.972
110.599998	2.946
112.000000	2.924
113.800003	2.895
115.000000	2.875
117.199997	2.839
118.000000	2.826
120.599998	2.784
122.000000	2.762
124.099998	2.728
125.000000	2.714
126.500000	2.690
128.000000	2.667
131.500000	2.612
132.000000	2.604
134.000000	2.574
136.000000	2.545
138.000000	2.516
140.000000	2.488
143.000000	2.446
145.000000	2.419
147.500000	2.386
150.000000	2.354
152.500000	2.323
155.000000	2.293
157.500000	2.264
160.000000	2.236
162.500000	2.208
165.000000	2.182
167.500000	2.156
170.000000	2.130
172.500000	2.105
175.000000	2.081
177.500000	2.058
180.000000	2.036
182.500000	2.014
185.000000	1.993
187.500000	1.972
190.000000	1.952
192.500000	1.933
195.000000	1.915
197.500000	1.897
200.000000	1.879
203.000000	1.860
206.000000	1.841
209.000000	1.823
212.000000	1.806
214.000000	1.795
218.000000	1.773
220.000000	1.762
224.000000	1.743
227.000000	1.730
230.000000	1.717
233.000000	1.706
236.000000	1.695
240.000000	1.682
243.000000	1.672
247.000000	1.661
250.000000	1.652
254.000000	1.642
258.000000	1.633
262.000000	1.625
265.000000	1.619
269.000000	1.612
272.000000	1.607
276.000000	1.601
280.000000	1.595
285.000000	1.589
290.000000	1.584
295.000000	1.579
300.000000	1.575
304.000000	1.572
307.000000	1.570
311.000000	1.567
315.000000	1.565
320.000000	1.562
325.000000	1.560
330.000000	1.558
335.000000	1.556
340.000000	1.554
345.000000	1.552
350.000000	1.549
355.000000	1.547
360.000000	1.545
365.000000	1.542
370.000000	1.540
375.000000	1.537
382.000000	1.531
387.000000	1.526
395.000000	1.517
400.000000	1.511
406.000000	1.502
412.000000	1.492
418.000000	1.482
425.000000	1.468
431.000000	1.455
437.000000	1.442
444.000000	1.426
450.000000	1.412
455.000000	1.399
462.000000	1.380
468.000000	1.364
475.000000	1.345
482.000000	1.325
487.000000	1.310
494.000000	1.289
500.000000	1.270
508.000000	1.244
515.000000	1.221
522.000000	1.198
530.000000	1.171
538.000000	1.144
545.000000	1.119
552.000000	1.095
560.000000	1.067
570.000000	1.032
580.000000	0.996
590.000000	0.962
600.000000	0.926
608.000000	0.898
615.000000	0.872
622.000000	0.847
630.000000	0.817
640.000000	0.781
650.000000	0.743
660.000000	0.705
670.000000	0.667
680.000000	0.629
690.000000	0.590
700.000000	0.550
710.000000	0.511
720.000000	0.472
730.000000	0.434
740.000000	0.396
750.000000	0.360
762.000000	0.317
775.000000	0.272
788.000000	0.229
800.000000	0.192
812.000000	0.157
825.000000	0.122
838.000000	0.090
850.000000	0.064
862.000000	0.041
875.000000	0.021
885.000000	0.008
900.000000	-0.005
912.000000	-0.011
925.000000	-0.011
938.000000	-0.005
950.000000	0.006
962.000000	0.022
975.000000	0.047
988.000000	0.078
1000.000000	0.113
1015.000000	0.163
1030.000000	0.221
1044.000000	0.279
1060.000000	0.351
1075.000000	0.420
1090.000000	0.490
1106.000000	0.563
1120.000000	0.626
1138.000000	0.704
1150.000000	0.753
1172.000000	0.840
1180.000000	0.870
1206.000000	0.966
1220.000000	1.016
1241.000000	1.089
1250.000000	1.119
1265.000000	1.169
1280.000000	1.218
1315.000000	1.329
1320.000000	1.344
1340.000000	1.404
1360.000000	1.464
1380.000000	1.523
1400.000000	1.583
1430.000000	1.675
1450.000000	1.738
1475.000000	1.820
1500.000000	1.907
1525.000000	1.999
1550.000000	2.097
1575.000000	2.201
1600.000000	2.310
1625.000000	2.424
1650.000000	2.542
1675.000000	2.664
1700.000000	2.791
1725.000000	2.920
1750.000000	3.052
1775.000000	3.186
1800.000000	3.322
1825.000000	3.460
1850.000000	3.601
1875.000000	3.743
1900.000000	3.888
1925.000000	4.035
1950.000000	4.186
1975.000000	4.340
2000.000000	4.499
2030.000000	4.697
2060.000000	4.901
2090.000000	5.112
2120.000000	5.329
2140.000000	5.477
2180.000000	5.776
2200.000000	5.928
2240.000000	6.232
2270.000000	6.459
2300.000000	6.683
2330.000000	6.903
2360.000000	7.118
2400.000000	7.394
2430.000000	7.593
2470.000000	7.845
2500.000000	8.025
2540.000000	8.252
2580.000000	8.465
2620.000000	8.663
2650.000000	8.803
2690.000000	8.975
2720.000000	9.092
2760.000000	9.233
2800.000000	9.355
2850.000000	9.479
2900.000000	9.572
2950.000000	9.633
3000.000000	9.663
3040.000000	9.666
3070.000000	9.657
3110.000000	9.630
3150.000000	9.588
3200.000000	9.517
3250.000000	9.428
3300.000000	9.325
3350.000000	9.210
3400.000000	9.085
3450.000000	8.951
3500.000000	8.812
3550.000000	8.670
3600.000000	8.524
3650.000000	8.378
3700.000000	8.231
3750.000000	8.085
3820.000000	7.885
3870.000000	7.746
3950.000000	7.533
4000.000000	7.407
4060.000000	7.263
4120.000000	7.127
4180.000000	7.001
4250.000000	6.864
4310.000000	6.755
4370.000000	6.655
4440.000000	6.548
4500.000000	6.464
4550.000000	6.400
4620.000000	6.317
4680.000000	6.252
4750.000000	6.180
4820.000000	6.112
4870.000000	6.063
4940.000000	5.994
5000.000000	5.933
5080.000000	5.849
5150.000000	5.773
5220.000000	5.694
5300.000000	5.601
5380.000000	5.507
5450.000000	5.423
5520.000000	5.338
5600.000000	5.240
5700.000000	5.118
5800.000000	4.997
5900.000000	4.880
6000.000000	4.769
6080.000000	4.686
6150.000000	4.619
6220.000000	4.557
6300.000000	4.494
6400.000000	4.428
6500.000000	4.376
6600.000000	4.337
6700.000000	4.312
6800.000000	4.299
6900.000000	4.296
7000.000000	4.301
7100.000000	4.312
7200.000000	4.327
7300.000000	4.343
7400.000000	4.356
7500.000000	4.364
7620.000000	4.362
7750.000000	4.344
7880.000000	4.307
8000.000000	4.253
8120.000000	4.179
8250.000000	4.076
8380.000000	3.948
8500.000000	3.804
8620.000000	3.634
8750.000000	3.422
8850.000000	3.237
9000.000000	2.933
9120.000000	2.672
9250.000000	2.381
9380.000000	2.088
9500.000000	1.820
9620.000000	1.558
9750.000000	1.279
9880.000000	1.008
10000.000000	0.765
10150.000000	0.466
10300.000000	0.165
10440.000000	-0.134
10600.000000	-0.522
10750.000000	-0.952
10900.000000	-1.457
11060.000000	-2.061
11200.000000	-2.620
11380.000000	-3.330
11500.000000	-3.770
11720.000000	-4.467
11800.000000	-4.680
12060.000000	-5.224
12200.000000	-5.425
12410.000000	-5.616
12500.000000	-5.662
12650.000000	-5.699
12800.000000	-5.696
13150.000000	-5.587
13200.000000	-5.564
13400.000000	-5.471
13600.000000	-5.377
13800.000000	-5.293
14000.000000	-5.219
14300.000000	-5.125
14500.000000	-5.077
14750.000000	-5.042
15000.000000	-5.036
15250.000000	-5.063
15500.000000	-5.119
15750.000000	-5.200
16000.000000	-5.305
16250.000000	-5.432
16500.000000	-5.585
16750.000000	-5.764
17000.000000	-5.974
17250.000000	-6.217
17500.000000	-6.497
17750.000000	-6.820
18000.000000	-7.192
18250.000000	-7.616
18500.000000	-8.096
18750.000000	-8.630
19000.000000	-9.212
19250.000000	-9.838
19500.000000	-10.474
19750.000000	-10.998
20000.000000	-11.204
