* Measurement data measured by REW V5.20.13
* Source: EXCL: Headset (3- KM-HIFI-384KHZ), MICROPHONE (Master Volume), 0, volume: 1.000
* Format: 256k Log Swept Sine, 1 sweep at -24.0 dBFS with no timing reference
* Dated: Sep 22, 2023 10:58:48 AM
* REW Settings:
*  C-weighting compensation: Off
*  Target level: 75.0 dB
* Note: 
* Measurement: L Sep 22
* Smoothing: 1/24 octave
* Frequency Step: 1/48 octave
* Start Frequency: 20.000 Hz
*
* Freq(Hz)	SPL(dB)	Phase(degrees)
20.000000	81.599	-152.3108
20.299999	81.611	-153.1158
20.600000	81.622	-153.8983
20.900000	81.631	-154.6606
21.200001	81.638	-155.4063
21.400000	81.642	-155.8971
21.799999	81.648	-156.8679
22.000000	81.651	-157.3496
22.400000	81.652	-158.3069
22.700001	81.651	-159.0174
23.000000	81.647	-159.7184
23.299999	81.641	-160.4074
23.600000	81.635	-161.0836
24.000000	81.625	-161.9660
24.299999	81.617	-162.6152
24.700001	81.607	-163.4660
25.000000	81.598	-164.0928
25.400000	81.586	-164.9109
25.799999	81.572	-165.7046
26.200001	81.559	-166.4714
26.500000	81.548	-167.0294
26.900000	81.535	-167.7531
27.200001	81.524	-168.2827
27.600000	81.510	-168.9726
28.000000	81.494	-169.6432
28.500000	81.472	-170.4512
29.000000	81.448	-171.2256
29.500000	81.423	-171.9729
30.000000	81.397	-172.7037
30.400000	81.375	-173.2811
30.700001	81.357	-173.7099
31.100000	81.332	-174.2743
31.500000	81.305	-174.8279
32.000000	81.270	-175.5024
32.500000	81.235	-176.1579
33.000000	81.199	-176.7959
33.500000	81.164	-177.4182
34.000000	81.129	-178.0252
34.500000	81.095	-178.6164
35.000000	81.061	-179.1909
35.500000	81.027	-179.7484
36.000000	80.993	179.7098
36.500000	80.958	179.1825
37.000000	80.923	178.6691
37.500000	80.887	178.1705
38.200001	80.834	177.4999
38.700001	80.796	177.0401
39.500000	80.733	176.3307
40.000000	80.694	175.8998
40.599998	80.646	175.3952
41.200001	80.598	174.9066
41.799999	80.551	174.4324
42.500000	80.497	173.8898
43.099998	80.451	173.4330
43.700001	80.405	172.9895
44.400002	80.350	172.4927
45.000000	80.304	172.0832
45.500000	80.266	171.7533
46.200001	80.212	171.3078
46.799999	80.166	170.9351
47.500000	80.112	170.5075
48.200001	80.055	170.0998
48.700001	80.015	169.8268
49.400002	79.960	169.4635
50.000000	79.914	169.1583
50.799999	79.855	168.7542
51.500000	79.803	168.4071
52.200001	79.750	168.0709
53.000000	79.691	167.7064
53.799999	79.632	167.3591
54.500000	79.582	167.0624
55.200001	79.531	166.7767
56.000000	79.473	166.4688
57.000000	79.401	166.0977
58.000000	79.328	165.7534
59.000000	79.257	165.4413
60.000000	79.190	165.1161
60.799999	79.133	164.8555
61.500000	79.083	164.6425
62.200001	79.034	164.4391
63.000000	78.978	164.2142
64.000000	78.909	163.9506
65.000000	78.843	163.6988
66.000000	78.778	163.4556
67.000000	78.713	163.2291
68.000000	78.649	163.0193
69.000000	78.585	162.8250
70.000000	78.522	162.6410
71.000000	78.460	162.4636
72.000000	78.398	162.2929
73.000000	78.337	162.1331
74.000000	78.277	161.9856
75.000000	78.218	161.8473
76.199997	78.148	161.6935
77.500000	78.074	161.5374
78.800003	78.000	161.3903
80.000000	77.933	161.2673
81.199997	77.867	161.1533
82.500000	77.797	161.0377
83.800003	77.728	160.9313
85.000000	77.665	160.8442
86.199997	77.603	160.7672
87.500000	77.537	160.6978
88.500000	77.488	160.6511
90.000000	77.415	160.5850
91.199997	77.358	160.5377
92.500000	77.297	160.4951
93.800003	77.236	160.4607
95.000000	77.181	160.4350
96.199997	77.126	160.4148
97.500000	77.067	160.3977
98.800003	77.010	160.3855
100.000000	76.959	160.3780
101.500000	76.896	160.3748
103.000000	76.834	160.3831
104.400002	76.777	160.3939
106.000000	76.713	160.4082
107.500000	76.653	160.4313
109.000000	76.594	160.4659
110.599998	76.534	160.5110
112.000000	76.483	160.5501
113.800003	76.417	160.6007
115.000000	76.373	160.6371
117.199997	76.294	160.7120
118.000000	76.266	160.7420
120.599998	76.175	160.8518
122.000000	76.126	160.9254
124.099998	76.055	161.0475
125.000000	76.025	161.1019
126.500000	75.976	161.1945
128.000000	75.927	161.2921
131.500000	75.816	161.5412
132.000000	75.800	161.5796
134.000000	75.737	161.7463
136.000000	75.676	161.9359
138.000000	75.618	162.1495
140.000000	75.564	162.3871
143.000000	75.492	162.7863
145.000000	75.455	163.0549
147.500000	75.419	163.3474
150.000000	75.389	163.5672
152.500000	75.358	163.7240
155.000000	75.324	163.8446
157.500000	75.285	163.9557
160.000000	75.241	164.0699
162.500000	75.196	164.1957
165.000000	75.150	164.3326
167.500000	75.104	164.4797
170.000000	75.059	164.6331
172.500000	75.015	164.7980
175.000000	74.971	164.9757
177.500000	74.929	165.1627
180.000000	74.888	165.3544
182.500000	74.849	165.5552
185.000000	74.812	165.7646
187.500000	74.778	165.9814
190.000000	74.745	166.1970
192.500000	74.716	166.3999
195.000000	74.689	166.5867
197.500000	74.664	166.7648
200.000000	74.638	166.9334
203.000000	74.607	167.1202
206.000000	74.573	167.2974
209.000000	74.539	167.4710
212.000000	74.505	167.6456
214.000000	74.482	167.7639
218.000000	74.435	168.0074
220.000000	74.412	168.1335
224.000000	74.367	168.3957
227.000000	74.333	168.6008
230.000000	74.300	168.8109
233.000000	74.268	169.0238
236.000000	74.236	169.2382
240.000000	74.194	169.5302
243.000000	74.163	169.7555
247.000000	74.125	170.0621
250.000000	74.097	170.2972
254.000000	74.061	170.6216
258.000000	74.027	170.9584
262.000000	73.995	171.3053
265.000000	73.975	171.5790
269.000000	73.954	171.9537
272.000000	73.943	172.2259
276.000000	73.935	172.5606
280.000000	73.931	172.8425
285.000000	73.924	173.1141
290.000000	73.909	173.3412
295.000000	73.887	173.5678
300.000000	73.861	173.8109
304.000000	73.838	174.0168
307.000000	73.821	174.1765
311.000000	73.798	174.3950
315.000000	73.777	174.6235
320.000000	73.751	174.9191
325.000000	73.725	175.2169
330.000000	73.702	175.5149
335.000000	73.680	175.8120
340.000000	73.659	176.1119
345.000000	73.638	176.4145
350.000000	73.618	176.7151
355.000000	73.600	177.0135
360.000000	73.583	177.3125
365.000000	73.566	177.6123
370.000000	73.550	177.9114
375.000000	73.534	178.2089
382.000000	73.515	178.6190
387.000000	73.501	178.9075
395.000000	73.480	179.3714
400.000000	73.469	179.6633
406.000000	73.456	-179.9897
412.000000	73.443	-179.6468
418.000000	73.431	-179.3055
425.000000	73.418	-178.9063
431.000000	73.408	-178.5641
437.000000	73.399	-178.2242
444.000000	73.389	-177.8345
450.000000	73.382	-177.5046
455.000000	73.375	-177.2310
462.000000	73.367	-176.8485
468.000000	73.361	-176.5210
475.000000	73.354	-176.1407
482.000000	73.348	-175.7639
487.000000	73.344	-175.4958
494.000000	73.339	-175.1199
500.000000	73.335	-174.7981
508.000000	73.330	-174.3687
515.000000	73.327	-173.9950
522.000000	73.325	-173.6225
530.000000	73.324	-173.1970
538.000000	73.322	-172.7694
545.000000	73.322	-172.3999
552.000000	73.321	-172.0338
560.000000	73.321	-171.6116
570.000000	73.324	-171.0840
580.000000	73.328	-170.5591
590.000000	73.334	-170.0276
600.000000	73.340	-169.4963
608.000000	73.346	-169.0782
615.000000	73.352	-168.7132
622.000000	73.358	-168.3456
630.000000	73.367	-167.9255
640.000000	73.378	-167.4001
650.000000	73.392	-166.8733
660.000000	73.407	-166.3483
670.000000	73.423	-165.8238
680.000000	73.440	-165.2982
690.000000	73.460	-164.7710
700.000000	73.480	-164.2435
710.000000	73.502	-163.7176
720.000000	73.525	-163.1900
730.000000	73.550	-162.6618
740.000000	73.577	-162.1335
750.000000	73.606	-161.6059
762.000000	73.643	-160.9752
775.000000	73.686	-160.2948
788.000000	73.733	-159.6183
800.000000	73.779	-158.9970
812.000000	73.829	-158.3806
825.000000	73.886	-157.7193
838.000000	73.947	-157.0692
850.000000	74.007	-156.4764
862.000000	74.069	-155.8908
875.000000	74.141	-155.2721
885.000000	74.199	-154.8079
900.000000	74.290	-154.1332
912.000000	74.366	-153.6124
925.000000	74.451	-153.0663
938.000000	74.540	-152.5415
950.000000	74.625	-152.0785
962.000000	74.711	-151.6391
975.000000	74.808	-151.1905
988.000000	74.907	-150.7735
1000.000000	75.000	-150.4162
1015.000000	75.118	-150.0052
1030.000000	75.237	-149.6393
1044.000000	75.349	-149.3414
1060.000000	75.476	-149.0488
1075.000000	75.594	-148.8160
1090.000000	75.709	-148.6241
1106.000000	75.830	-148.4595
1120.000000	75.932	-148.3461
1138.000000	76.060	-148.2351
1150.000000	76.143	-148.1792
1172.000000	76.289	-148.1074
1180.000000	76.341	-148.0890
1206.000000	76.501	-148.0484
1220.000000	76.584	-148.0357
1241.000000	76.705	-148.0281
1250.000000	76.756	-148.0282
1265.000000	76.839	-148.0298
1280.000000	76.920	-148.0334
1315.000000	77.104	-148.0570
1320.000000	77.130	-148.0620
1340.000000	77.232	-148.0860
1360.000000	77.332	-148.1150
1380.000000	77.431	-148.1499
1400.000000	77.529	-148.1891
1430.000000	77.674	-148.2536
1450.000000	77.770	-148.3023
1475.000000	77.889	-148.3679
1500.000000	78.008	-148.4421
1525.000000	78.127	-148.5294
1550.000000	78.248	-148.6317
1575.000000	78.368	-148.7533
1600.000000	78.490	-148.8980
1625.000000	78.611	-149.0664
1650.000000	78.733	-149.2589
1675.000000	78.855	-149.4780
1700.000000	78.977	-149.7255
1725.000000	79.099	-150.0053
1750.000000	79.219	-150.3194
1775.000000	79.339	-150.6698
1800.000000	79.457	-151.0584
1825.000000	79.573	-151.4862
1850.000000	79.685	-151.9498
1875.000000	79.792	-152.4385
1900.000000	79.893	-152.9303
1925.000000	79.993	-153.3976
1950.000000	80.099	-153.8328
1975.000000	80.223	-154.2788
2000.000000	80.369	-154.8353
2030.000000	80.563	-155.8064
2060.000000	80.754	-157.2411
2090.000000	80.906	-159.2381
2120.000000	80.959	-161.7965
2140.000000	80.902	-163.6488
2180.000000	80.518	-166.4809
2200.000000	80.241	-166.8609
2240.000000	79.816	-165.5352
2270.000000	79.738	-163.9101
2300.000000	79.812	-162.6849
2330.000000	79.948	-162.0512
2360.000000	80.093	-161.8868
2400.000000	80.271	-162.1279
2430.000000	80.387	-162.5131
2470.000000	80.522	-163.1824
2500.000000	80.610	-163.7585
2540.000000	80.717	-164.5960
2580.000000	80.815	-165.5018
2620.000000	80.910	-166.4828
2650.000000	80.981	-167.2858
2690.000000	81.079	-168.5028
2720.000000	81.155	-169.5998
2760.000000	81.242	-171.4723
2800.000000	81.255	-173.9378
2850.000000	81.021	-177.1324
2900.000000	80.592	-178.2547
2950.000000	80.433	-177.6752
3000.000000	80.590	-178.5132
3040.000000	80.689	178.8201
3070.000000	80.603	175.8509
3110.000000	80.127	171.9805
3150.000000	79.262	170.8576
3200.000000	78.297	174.7682
3250.000000	78.152	179.6898
3300.000000	78.420	-178.9320
3350.000000	78.425	179.2533
3400.000000	77.915	178.1756
3450.000000	77.308	-179.5107
3500.000000	77.033	-175.7320
3550.000000	77.011	-172.1759
3600.000000	77.175	-168.8141
3650.000000	77.583	-166.2876
3700.000000	78.068	-165.8416
3750.000000	78.396	-167.0503
3820.000000	78.557	-169.5180
3870.000000	78.480	-171.2811
3950.000000	78.077	-172.2883
4000.000000	77.871	-171.4610
4060.000000	77.800	-170.2224
4120.000000	77.844	-169.5981
4180.000000	77.883	-169.9258
4250.000000	77.732	-171.1897
4310.000000	77.327	-171.3727
4370.000000	76.889	-169.0916
4440.000000	76.778	-164.9571
4500.000000	76.966	-162.2789
4550.000000	77.180	-160.9242
4620.000000	77.469	-159.9667
4680.000000	77.686	-159.7155
4750.000000	77.905	-159.8544
4820.000000	78.101	-160.4632
4870.000000	78.213	-161.3305
4940.000000	78.262	-163.2352
5000.000000	78.118	-165.1210
5080.000000	77.616	-166.1410
5150.000000	77.156	-164.3020
5220.000000	77.014	-161.3505
5300.000000	77.128	-159.0072
5380.000000	77.278	-157.7253
5450.000000	77.426	-157.0750
5520.000000	77.564	-157.1620
5600.000000	77.587	-158.0013
5700.000000	77.347	-158.7302
5800.000000	76.878	-157.7240
5900.000000	76.455	-153.1682
6000.000000	76.685	-147.2479
6080.000000	77.181	-144.4399
6150.000000	77.609	-143.5304
6220.000000	77.945	-143.5947
6300.000000	78.168	-144.0929
6400.000000	78.322	-144.0157
6500.000000	78.559	-143.8146
6600.000000	78.693	-144.7921
6700.000000	78.486	-145.3447
6800.000000	78.108	-142.8269
6900.000000	78.079	-137.3835
7000.000000	78.576	-131.7773
7100.000000	79.428	-127.3717
7200.000000	80.525	-124.6640
7300.000000	81.726	-124.3041
7400.000000	82.815	-126.4643
7500.000000	83.655	-130.0713
7620.000000	84.495	-134.1066
7750.000000	85.578	-138.7660
7880.000000	86.640	-146.7504
8000.000000	87.220	-157.0431
8120.000000	87.297	-168.2438
8250.000000	86.870	-179.6308
8380.000000	86.016	170.8820
8500.000000	84.956	164.4517
8620.000000	83.753	160.6382
8750.000000	82.488	159.3149
8850.000000	81.657	159.4742
9000.000000	80.603	160.5885
9120.000000	79.888	162.2747
9250.000000	79.286	164.5986
9380.000000	78.848	166.8981
9500.000000	78.542	168.7771
9620.000000	78.287	170.3384
9750.000000	78.022	171.7543
9880.000000	77.742	173.1407
10000.000000	77.484	174.6301
10150.000000	77.219	176.7442
10300.000000	77.026	178.6696
10440.000000	76.841	-179.8163
10600.000000	76.571	-177.8073
10750.000000	76.341	-175.0813
10900.000000	76.252	-171.8836
11060.000000	76.313	-168.6702
11200.000000	76.453	-166.2201
11380.000000	76.726	-163.5781
11500.000000	76.957	-162.2043
11720.000000	77.438	-160.5384
11800.000000	77.628	-160.1589
12060.000000	78.311	-159.8015
12200.000000	78.709	-160.1984
12410.000000	79.381	-161.3949
12500.000000	79.726	-162.2174
12650.000000	80.393	-164.4898
12800.000000	81.106	-168.6461
13150.000000	81.951	172.3745
13200.000000	81.881	169.0319
13400.000000	81.056	156.8710
13600.000000	79.604	149.0239
13800.000000	77.955	145.9982
14000.000000	76.472	146.4609
14300.000000	74.840	150.2189
14500.000000	74.110	153.6990
14750.000000	73.605	158.2928
15000.000000	73.521	161.8710
15250.000000	73.707	163.3488
15500.000000	73.968	162.0659
15750.000000	74.064	157.9049
16000.000000	73.773	151.7603
16250.000000	72.980	145.4759
16500.000000	71.739	140.9188
16750.000000	70.234	138.9456
17000.000000	68.662	139.3542
17250.000000	67.151	141.6214
17500.000000	65.794	145.2020
17750.000000	64.664	149.3937
18000.000000	63.802	153.2287
18250.000000	63.181	155.4171
18500.000000	62.651	154.4593
18750.000000	61.860	149.5202
19000.000000	60.326	143.0357
19250.000000	57.745	141.7714
19500.000000	54.385	150.5936
19750.000000	51.288	164.7598
