* Measurement data measured by REW V5.20.13
* Source: EXCL: Headset (KM-HIFI-384KHZ), MICROPHONE (Master Volume), 0, volume: 1.000
* Format: 256k Log Swept Sine, 1 sweep at -24.0 dBFS with no timing reference
* Dated: Oct 13, 2023 9:48:36 PM
* REW Settings:
*  C-weighting compensation: Off
*  Target level: 75.0 dB
* Note: ; 
* Measurement: Delta Airlines 'Studio' IEMs L
* Smoothing: 1/24 octave
* Frequency Step: 1/48 octave
* Start Frequency: 20.000 Hz
*
* Freq(Hz)	SPL(dB)	Phase(degrees)
20.000000	56.830	-40.4634
20.299999	56.992	-44.1418
20.600000	56.822	-47.5551
20.900000	56.392	-49.4589
21.200001	55.879	-48.9773
21.400000	55.672	-47.5704
21.799999	55.783	-44.1034
22.000000	56.096	-43.1435
22.400000	56.920	-44.6958
22.700001	57.396	-48.8295
23.000000	57.586	-54.3594
23.299999	57.469	-59.7577
23.600000	57.099	-63.7301
24.000000	56.444	-65.4091
24.299999	56.125	-64.0807
24.700001	56.230	-60.7965
25.000000	56.649	-58.9922
25.400000	57.313	-58.7009
25.799999	57.786	-60.0623
26.200001	58.016	-61.3400
26.500000	58.108	-61.5975
26.900000	58.232	-61.0665
27.200001	58.362	-60.4411
27.600000	58.546	-59.8151
28.000000	58.662	-59.4341
28.500000	58.701	-58.6038
29.000000	58.775	-57.1512
29.500000	58.988	-56.2068
30.000000	59.189	-56.9671
30.400000	59.191	-58.5229
30.700001	59.071	-59.6724
31.100000	58.812	-60.4360
31.500000	58.572	-60.1166
32.000000	58.504	-59.0232
32.500000	58.690	-58.6593
33.000000	58.926	-59.5616
33.500000	59.094	-60.9510
34.000000	59.234	-62.0023
34.500000	59.416	-62.6878
35.000000	59.628	-63.2846
35.500000	59.828	-63.7137
36.000000	60.032	-63.7228
36.500000	60.287	-63.4794
37.000000	60.570	-63.5189
37.500000	60.790	-64.0258
38.200001	60.892	-64.5548
38.700001	60.892	-64.0656
39.500000	61.038	-62.3769
40.000000	61.221	-61.7625
40.599998	61.415	-61.8845
41.200001	61.507	-62.4592
41.799999	61.529	-62.9133
42.500000	61.564	-63.2073
43.099998	61.625	-63.6226
43.700001	61.670	-64.2010
44.400002	61.711	-64.5285
45.000000	61.827	-64.4269
45.500000	61.996	-64.5297
46.200001	62.221	-65.2397
46.799999	62.334	-65.6865
47.500000	62.504	-65.4103
48.200001	62.771	-65.3384
48.700001	62.905	-65.7806
49.400002	62.920	-66.0219
50.000000	62.913	-65.1288
50.799999	63.065	-63.6951
51.500000	63.192	-63.1677
52.200001	63.275	-62.4133
53.000000	63.530	-61.5863
53.799999	63.823	-62.4590
54.500000	63.919	-63.7976
55.200001	63.967	-64.5071
56.000000	64.086	-64.8693
57.000000	64.302	-64.6900
58.000000	64.744	-64.1426
59.000000	65.150	-65.2275
60.000000	65.222	-65.9810
60.799999	65.254	-65.3529
61.500000	65.338	-64.7368
62.200001	65.410	-64.4011
63.000000	65.463	-64.0917
64.000000	65.550	-63.7656
65.000000	65.682	-63.7937
66.000000	65.839	-64.2048
67.000000	65.981	-64.7704
68.000000	66.115	-65.0936
69.000000	66.249	-65.2252
70.000000	66.366	-65.0664
71.000000	66.504	-64.6364
72.000000	66.669	-64.2770
73.000000	66.850	-64.1062
74.000000	67.030	-64.2288
75.000000	67.179	-64.4212
76.199997	67.359	-64.4321
77.500000	67.568	-64.3396
78.800003	67.768	-64.2735
80.000000	67.905	-64.2516
81.199997	68.019	-64.0961
82.500000	68.151	-63.9627
83.800003	68.284	-63.9504
85.000000	68.409	-63.8071
86.199997	68.585	-63.5351
87.500000	68.797	-63.5379
88.500000	68.923	-63.6338
90.000000	69.070	-63.4414
91.199997	69.211	-63.0210
92.500000	69.392	-62.7136
93.800003	69.555	-62.5458
95.000000	69.704	-62.3952
96.199997	69.843	-62.3776
97.500000	69.971	-62.3580
98.800003	70.110	-62.2929
100.000000	70.251	-62.2407
101.500000	70.447	-62.1181
103.000000	70.653	-61.8689
104.400002	70.860	-61.5810
106.000000	71.053	-61.5866
107.500000	71.158	-61.5719
109.000000	71.279	-61.5105
110.599998	71.436	-61.6631
112.000000	71.592	-61.7774
113.800003	71.803	-61.8488
115.000000	71.914	-61.7109
117.199997	72.104	-61.0125
118.000000	72.173	-60.7680
120.599998	72.444	-60.1038
122.000000	72.632	-60.1206
124.099998	72.873	-60.2704
125.000000	72.966	-60.2193
126.500000	73.114	-60.0151
128.000000	73.256	-59.7664
131.500000	73.589	-59.3622
132.000000	73.643	-59.3379
134.000000	73.861	-59.3470
136.000000	74.062	-59.2851
138.000000	74.257	-59.0912
140.000000	74.447	-58.9135
143.000000	74.729	-58.7240
145.000000	74.920	-58.6401
147.500000	75.155	-58.4928
150.000000	75.390	-58.3157
152.500000	75.627	-58.1594
155.000000	75.859	-57.9817
157.500000	76.092	-57.7417
160.000000	76.332	-57.5657
162.500000	76.572	-57.4801
165.000000	76.810	-57.4239
167.500000	77.037	-57.3132
170.000000	77.256	-57.1186
172.500000	77.477	-56.9417
175.000000	77.698	-56.8255
177.500000	77.924	-56.7412
180.000000	78.157	-56.6544
182.500000	78.394	-56.6114
185.000000	78.617	-56.5689
187.500000	78.832	-56.4463
190.000000	79.049	-56.3139
192.500000	79.267	-56.2301
195.000000	79.487	-56.1859
197.500000	79.710	-56.1551
200.000000	79.931	-56.1132
203.000000	80.189	-56.0791
206.000000	80.445	-56.0647
209.000000	80.706	-56.0580
212.000000	80.966	-56.0492
214.000000	81.138	-56.0397
218.000000	81.484	-56.0687
220.000000	81.656	-56.1108
224.000000	82.000	-56.1983
227.000000	82.257	-56.2652
230.000000	82.515	-56.3472
233.000000	82.773	-56.4646
236.000000	83.029	-56.6057
240.000000	83.371	-56.7906
243.000000	83.625	-56.9259
247.000000	83.966	-57.1351
250.000000	84.222	-57.3135
254.000000	84.562	-57.5757
258.000000	84.903	-57.8649
262.000000	85.243	-58.2003
265.000000	85.497	-58.4824
269.000000	85.837	-58.8933
272.000000	86.092	-59.2224
276.000000	86.428	-59.6829
280.000000	86.763	-60.1718
285.000000	87.183	-60.8492
290.000000	87.602	-61.5702
295.000000	88.022	-62.3380
300.000000	88.441	-63.1805
304.000000	88.774	-63.8988
307.000000	89.021	-64.4681
311.000000	89.349	-65.2831
315.000000	89.674	-66.1595
320.000000	90.080	-67.3193
325.000000	90.485	-68.5383
330.000000	90.884	-69.8335
335.000000	91.279	-71.2204
340.000000	91.669	-72.7036
345.000000	92.052	-74.2917
350.000000	92.427	-75.9906
355.000000	92.790	-77.8092
360.000000	93.138	-79.7561
365.000000	93.466	-81.8197
370.000000	93.765	-83.9905
375.000000	94.031	-86.2394
382.000000	94.333	-89.3923
387.000000	94.495	-91.5099
395.000000	94.683	-94.2954
400.000000	94.797	-95.5121
406.000000	94.985	-96.5079
412.000000	95.262	-97.3093
418.000000	95.620	-98.2879
425.000000	96.090	-99.9446
431.000000	96.497	-101.8333
437.000000	96.885	-104.0629
444.000000	97.302	-106.9618
450.000000	97.625	-109.6025
455.000000	97.874	-111.8631
462.000000	98.192	-115.0852
468.000000	98.438	-117.8711
475.000000	98.702	-121.1133
482.000000	98.945	-124.3352
487.000000	99.108	-126.6282
494.000000	99.325	-129.8349
500.000000	99.501	-132.5837
508.000000	99.722	-136.2541
515.000000	99.905	-139.4752
522.000000	100.080	-142.7136
530.000000	100.268	-146.4536
538.000000	100.442	-150.2613
545.000000	100.583	-153.6716
552.000000	100.713	-157.1620
560.000000	100.845	-161.2507
570.000000	100.979	-166.5288
580.000000	101.073	-171.9972
590.000000	101.116	-177.6537
600.000000	101.101	176.5297
608.000000	101.042	171.7935
615.000000	100.952	167.6153
622.000000	100.824	163.4328
630.000000	100.632	158.6893
640.000000	100.321	152.8857
650.000000	99.937	147.3018
660.000000	99.485	142.0211
670.000000	98.974	137.1163
680.000000	98.417	132.6284
690.000000	97.824	128.5719
700.000000	97.207	124.9428
710.000000	96.576	121.7201
720.000000	95.938	118.8920
730.000000	95.301	116.4432
740.000000	94.667	114.3300
750.000000	94.042	112.5140
762.000000	93.304	110.6916
775.000000	92.524	109.1083
788.000000	91.766	107.8880
800.000000	91.087	107.0425
812.000000	90.428	106.4318
825.000000	89.737	106.0065
838.000000	89.070	105.7915
850.000000	88.473	105.7591
862.000000	87.892	105.8779
875.000000	87.282	106.1575
885.000000	86.826	106.4677
900.000000	86.160	107.0911
912.000000	85.641	107.7191
925.000000	85.093	108.5002
938.000000	84.559	109.3823
950.000000	84.076	110.2925
962.000000	83.603	111.2979
975.000000	83.100	112.4962
988.000000	82.606	113.8093
1000.000000	82.157	115.1269
1015.000000	81.606	116.9203
1030.000000	81.061	118.8839
1044.000000	80.561	120.8952
1060.000000	79.999	123.4181
1075.000000	79.480	126.0177
1090.000000	78.970	128.9359
1106.000000	78.436	132.5853
1120.000000	78.015	136.4130
1138.000000	77.676	141.7865
1150.000000	77.568	144.7720
1172.000000	77.257	149.2182
1180.000000	77.102	151.0687
1206.000000	76.691	158.2234
1220.000000	76.570	162.4132
1241.000000	76.518	168.7499
1250.000000	76.539	171.4266
1265.000000	76.629	175.7738
1280.000000	76.782	179.9234
1315.000000	77.331	-171.3702
1320.000000	77.425	-170.2515
1340.000000	77.824	-166.0903
1360.000000	78.252	-162.4174
1380.000000	78.693	-159.2281
1400.000000	79.121	-156.4700
1430.000000	79.666	-152.6066
1450.000000	80.014	-149.1034
1475.000000	80.888	-143.8197
1500.000000	81.979	-142.0031
1525.000000	82.739	-142.2093
1550.000000	83.359	-142.0825
1575.000000	83.972	-141.7613
1600.000000	84.595	-141.5323
1625.000000	85.225	-141.5325
1650.000000	85.861	-141.7863
1675.000000	86.503	-142.3206
1700.000000	87.149	-143.1808
1725.000000	87.799	-144.3910
1750.000000	88.450	-145.9944
1775.000000	89.097	-148.0482
1800.000000	89.728	-150.5955
1825.000000	90.334	-153.6741
1850.000000	90.900	-157.3120
1875.000000	91.407	-161.5122
1900.000000	91.836	-166.2349
1925.000000	92.168	-171.3988
1950.000000	92.387	-176.8694
1975.000000	92.484	177.5300
2000.000000	92.460	171.9824
2030.000000	92.282	165.6439
2060.000000	91.968	159.8718
2090.000000	91.551	154.8030
2120.000000	91.063	150.4817
2140.000000	90.712	148.0078
2180.000000	89.982	143.9426
2200.000000	89.614	142.3037
2240.000000	88.888	139.6989
2270.000000	88.360	138.2464
2300.000000	87.852	137.1427
2330.000000	87.363	136.3339
2360.000000	86.897	135.7750
2400.000000	86.308	135.3510
2430.000000	85.890	135.2360
2470.000000	85.363	135.3073
2500.000000	84.990	135.5027
2540.000000	84.518	135.9183
2580.000000	84.074	136.4837
2620.000000	83.656	137.1772
2650.000000	83.357	137.7698
2690.000000	82.977	138.6400
2720.000000	82.706	139.3459
2760.000000	82.360	140.3511
2800.000000	82.032	141.4225
2850.000000	81.643	142.8434
2900.000000	81.276	144.3417
2950.000000	80.928	145.9120
3000.000000	80.598	147.5457
3040.000000	80.344	148.8992
3070.000000	80.161	149.9341
3110.000000	79.924	151.3450
3150.000000	79.694	152.8002
3200.000000	79.417	154.6761
3250.000000	79.151	156.6065
3300.000000	78.892	158.6022
3350.000000	78.640	160.6688
3400.000000	78.395	162.8147
3450.000000	78.155	165.0551
3500.000000	77.917	167.3920
3550.000000	77.681	169.8406
3600.000000	77.445	172.4326
3650.000000	77.210	175.2065
3700.000000	76.975	178.1900
3750.000000	76.740	-178.5730
3820.000000	76.417	-173.4917
3870.000000	76.196	-169.3568
3950.000000	75.888	-161.6089
4000.000000	75.758	-155.8932
4060.000000	75.729	-148.0107
4120.000000	75.927	-139.0565
4180.000000	76.470	-129.3873
4250.000000	77.654	-118.2404
4310.000000	79.131	-110.0091
4370.000000	80.911	-104.0731
4440.000000	83.131	-100.9510
4500.000000	84.946	-101.7769
4550.000000	86.276	-104.7035
4620.000000	87.742	-111.2410
4680.000000	88.601	-117.8528
4750.000000	89.210	-125.2192
4820.000000	89.532	-131.2422
4870.000000	89.674	-134.5323
4940.000000	89.854	-137.8628
5000.000000	90.051	-139.8592
5080.000000	90.422	-141.7775
5150.000000	90.870	-143.1241
5220.000000	91.447	-144.4806
5300.000000	92.283	-146.3875
5380.000000	93.326	-149.2101
5450.000000	94.398	-153.0562
5520.000000	95.563	-158.9168
5600.000000	96.833	-169.1395
5700.000000	97.833	172.0177
5800.000000	97.626	149.7983
5900.000000	96.198	131.1633
6000.000000	94.109	119.4542
6080.000000	92.369	114.2703
6150.000000	90.943	111.7958
6220.000000	89.649	110.6219
6300.000000	88.332	110.3702
6400.000000	86.904	111.1511
6500.000000	85.681	112.7350
6600.000000	84.631	114.8462
6700.000000	83.726	117.3114
6800.000000	82.948	120.0279
6900.000000	82.279	122.9269
7000.000000	81.710	125.9614
7100.000000	81.235	129.0739
7200.000000	80.847	132.1998
7300.000000	80.534	135.3126
7400.000000	80.292	138.4134
7500.000000	80.119	141.5070
7620.000000	80.004	145.1859
7750.000000	79.997	149.0778
7880.000000	80.120	152.8024
8000.000000	80.356	156.0086
8120.000000	80.722	158.8805
8250.000000	81.282	161.4472
8380.000000	82.035	163.1632
8500.000000	82.916	163.5786
8620.000000	83.970	162.2629
8750.000000	85.226	157.8384
8850.000000	86.127	151.5053
9000.000000	86.959	136.7834
9120.000000	86.862	122.3217
9250.000000	85.910	107.8886
9380.000000	84.311	97.6191
9500.000000	82.577	92.1522
9620.000000	80.834	89.6480
9750.000000	79.069	89.1858
9880.000000	77.470	90.2368
10000.000000	76.132	92.1076
10150.000000	74.623	95.2917
10300.000000	73.266	99.1388
10440.000000	72.112	103.1758
10600.000000	70.904	108.2126
10750.000000	69.864	113.2740
10900.000000	68.905	118.5980
11060.000000	67.968	124.5301
11200.000000	67.219	129.9055
11380.000000	66.344	136.9877
11500.000000	65.814	141.7551
11720.000000	64.944	150.5151
11800.000000	64.654	153.7065
12060.000000	63.797	164.0486
12200.000000	63.394	169.5987
12410.000000	62.867	178.0191
12500.000000	62.667	-178.3773
12650.000000	62.371	-172.4252
12800.000000	62.125	-166.5414
13150.000000	61.721	-153.1515
13200.000000	61.682	-151.2963
13400.000000	61.572	-144.0360
13600.000000	61.531	-137.0042
13800.000000	61.559	-130.2216
14000.000000	61.664	-123.6488
14300.000000	62.002	-114.1105
14500.000000	62.369	-107.9748
14750.000000	63.013	-100.6493
15000.000000	63.882	-93.7879
15250.000000	65.013	-87.5888
15500.000000	66.465	-82.2537
15750.000000	68.313	-78.3183
16000.000000	70.584	-76.8549
16250.000000	73.103	-79.9623
16500.000000	75.310	-90.3749
16750.000000	76.448	-107.8115
17000.000000	76.180	-125.4782
17250.000000	74.897	-136.2073
17500.000000	73.356	-139.1448
17750.000000	72.116	-136.9236
18000.000000	71.392	-131.9774
18250.000000	71.214	-126.0638
18500.000000	71.519	-120.5813
18750.000000	72.219	-116.5308
19000.000000	73.234	-115.1008
19250.000000	74.281	-118.4528
19500.000000	74.815	-127.6223
19750.000000	74.501	-139.2211
