* Measurement data measured by REW V5.20.13
* Source: EXCL: Headset (KM-HIFI-384KHZ), MICROPHONE (Master Volume), 0, volume: 1.000
* Format: 256k Log Swept Sine, 1 sweep at -24.0 dBFS with no timing reference
* Dated: Oct 13, 2023 9:23:54 PM
* REW Settings:
*  C-weighting compensation: Off
*  Target level: 75.0 dB
* Note: ; 
* Measurement: Dunu Zen Pro SD++ L
* Smoothing: 1/24 octave
* Frequency Step: 1/48 octave
* Start Frequency: 20.000 Hz
*
* Freq(Hz)	SPL(dB)	Phase(degrees)
20.000000	90.386	-110.2197
20.299999	90.479	-110.8799
20.600000	90.571	-111.5367
20.900000	90.661	-112.1955
21.200001	90.750	-112.8581
21.400000	90.806	-113.2999
21.799999	90.915	-114.1751
22.000000	90.967	-114.6040
22.400000	91.067	-115.4367
22.700001	91.140	-116.0390
23.000000	91.212	-116.6271
23.299999	91.283	-117.2078
23.600000	91.353	-117.7853
24.000000	91.443	-118.5522
24.299999	91.508	-119.1219
24.700001	91.590	-119.8669
25.000000	91.649	-120.4110
25.400000	91.726	-121.1166
25.799999	91.800	-121.8032
26.200001	91.874	-122.4766
26.500000	91.928	-122.9759
26.900000	91.999	-123.6380
27.200001	92.052	-124.1344
27.600000	92.119	-124.7979
28.000000	92.183	-125.4594
28.500000	92.256	-126.2657
29.000000	92.325	-127.0254
29.500000	92.394	-127.7356
30.000000	92.468	-128.4250
30.400000	92.528	-128.9858
30.700001	92.573	-129.4174
31.100000	92.629	-130.0010
31.500000	92.680	-130.5788
32.000000	92.739	-131.2685
32.500000	92.796	-131.9142
33.000000	92.856	-132.5358
33.500000	92.917	-133.1620
34.000000	92.975	-133.8060
34.500000	93.026	-134.4528
35.000000	93.071	-135.0728
35.500000	93.114	-135.6468
36.000000	93.159	-136.1860
36.500000	93.208	-136.7222
37.000000	93.257	-137.2829
37.500000	93.303	-137.8689
38.200001	93.357	-138.6877
38.700001	93.389	-139.2404
39.500000	93.439	-140.0547
40.000000	93.473	-140.5352
40.599998	93.515	-141.1056
41.200001	93.559	-141.6871
41.799999	93.600	-142.2849
42.500000	93.644	-142.9909
43.099998	93.675	-143.5869
43.700001	93.703	-144.1599
44.400002	93.731	-144.7842
45.000000	93.755	-145.2775
45.500000	93.777	-145.6694
46.200001	93.812	-146.2155
46.799999	93.842	-146.6962
47.500000	93.876	-147.2661
48.200001	93.907	-147.8362
48.700001	93.927	-148.2473
49.400002	93.953	-148.8361
50.000000	93.967	-149.3431
50.799999	93.977	-149.9789
51.500000	93.980	-150.4667
52.200001	93.984	-150.8950
53.000000	93.992	-151.3313
53.799999	94.005	-151.7169
54.500000	94.024	-152.0278
55.200001	94.049	-152.3492
56.000000	94.081	-152.7553
57.000000	94.116	-153.2869
58.000000	94.150	-153.7989
59.000000	94.189	-154.3313
60.000000	94.226	-154.9135
60.799999	94.251	-155.3886
61.500000	94.271	-155.8028
62.200001	94.288	-156.2160
63.000000	94.305	-156.6792
64.000000	94.323	-157.2399
65.000000	94.335	-157.7824
66.000000	94.343	-158.2963
67.000000	94.349	-158.7860
68.000000	94.354	-159.2697
69.000000	94.359	-159.7642
70.000000	94.363	-160.2624
71.000000	94.367	-160.7478
72.000000	94.373	-161.2197
73.000000	94.382	-161.6804
74.000000	94.390	-162.1223
75.000000	94.396	-162.5390
76.199997	94.402	-163.0139
77.500000	94.402	-163.5063
78.800003	94.398	-163.9823
80.000000	94.392	-164.4175
81.199997	94.387	-164.8579
82.500000	94.383	-165.3388
83.800003	94.379	-165.8035
85.000000	94.377	-166.2094
86.199997	94.375	-166.5952
87.500000	94.371	-167.0000
88.500000	94.366	-167.3053
90.000000	94.356	-167.7470
91.199997	94.348	-168.0894
92.500000	94.340	-168.4615
93.800003	94.330	-168.8326
95.000000	94.320	-169.1590
96.199997	94.310	-169.4653
97.500000	94.301	-169.7893
98.800003	94.290	-170.1046
100.000000	94.281	-170.3826
101.500000	94.271	-170.7298
103.000000	94.260	-171.0861
104.400002	94.249	-171.4145
106.000000	94.235	-171.7759
107.500000	94.222	-172.1007
109.000000	94.209	-172.4139
110.599998	94.194	-172.7403
112.000000	94.180	-173.0249
113.800003	94.159	-173.3731
115.000000	94.145	-173.5891
117.199997	94.124	-173.9823
118.000000	94.116	-174.1283
120.599998	94.085	-174.5870
122.000000	94.066	-174.8128
124.099998	94.039	-175.1401
125.000000	94.028	-175.2814
126.500000	94.010	-175.5159
128.000000	93.991	-175.7440
131.500000	93.947	-176.2437
132.000000	93.940	-176.3117
134.000000	93.914	-176.5770
136.000000	93.887	-176.8337
138.000000	93.860	-177.0796
140.000000	93.834	-177.3136
143.000000	93.794	-177.6487
145.000000	93.767	-177.8592
147.500000	93.735	-178.1083
150.000000	93.702	-178.3462
152.500000	93.668	-178.5726
155.000000	93.634	-178.7903
157.500000	93.601	-179.0027
160.000000	93.568	-179.2059
162.500000	93.534	-179.3968
165.000000	93.500	-179.5782
167.500000	93.466	-179.7489
170.000000	93.430	-179.9051
172.500000	93.394	179.9543
175.000000	93.358	179.8235
177.500000	93.322	179.6992
180.000000	93.286	179.5894
182.500000	93.251	179.4935
185.000000	93.215	179.4100
187.500000	93.179	179.3400
190.000000	93.144	179.2851
192.500000	93.109	179.2458
195.000000	93.075	179.2212
197.500000	93.042	179.2137
200.000000	93.012	179.2275
203.000000	92.979	179.2634
206.000000	92.952	179.3011
209.000000	92.929	179.3276
212.000000	92.911	179.3326
214.000000	92.900	179.3229
218.000000	92.878	179.2742
220.000000	92.865	179.2365
224.000000	92.836	179.1514
227.000000	92.812	179.0898
230.000000	92.787	179.0348
233.000000	92.761	178.9864
236.000000	92.734	178.9452
240.000000	92.698	178.9041
243.000000	92.671	178.8842
247.000000	92.635	178.8597
250.000000	92.607	178.8410
254.000000	92.569	178.8304
258.000000	92.532	178.8387
262.000000	92.495	178.8526
265.000000	92.467	178.8678
269.000000	92.429	178.8982
272.000000	92.402	178.9295
276.000000	92.365	178.9811
280.000000	92.329	179.0404
285.000000	92.286	179.1219
290.000000	92.243	179.2146
295.000000	92.203	179.3183
300.000000	92.163	179.4309
304.000000	92.131	179.5234
307.000000	92.108	179.5970
311.000000	92.078	179.7006
315.000000	92.047	179.8072
320.000000	92.010	179.9480
325.000000	91.974	-179.9025
330.000000	91.939	-179.7467
335.000000	91.904	-179.5834
340.000000	91.869	-179.4100
345.000000	91.835	-179.2263
350.000000	91.803	-179.0315
355.000000	91.772	-178.8263
360.000000	91.743	-178.6117
365.000000	91.717	-178.3915
370.000000	91.693	-178.1704
375.000000	91.671	-177.9562
382.000000	91.643	-177.6812
387.000000	91.623	-177.4937
395.000000	91.589	-177.1986
400.000000	91.567	-177.0129
406.000000	91.540	-176.7808
412.000000	91.514	-176.5362
418.000000	91.488	-176.2850
425.000000	91.459	-175.9893
431.000000	91.435	-175.7332
437.000000	91.412	-175.4737
444.000000	91.387	-175.1647
450.000000	91.366	-174.8959
455.000000	91.348	-174.6691
462.000000	91.325	-174.3451
468.000000	91.306	-174.0637
475.000000	91.285	-173.7347
482.000000	91.264	-173.4049
487.000000	91.250	-173.1679
494.000000	91.232	-172.8309
500.000000	91.217	-172.5367
508.000000	91.197	-172.1420
515.000000	91.180	-171.7960
522.000000	91.163	-171.4407
530.000000	91.146	-171.0172
538.000000	91.131	-170.5822
545.000000	91.121	-170.2003
552.000000	91.113	-169.8204
560.000000	91.106	-169.3947
570.000000	91.101	-168.8842
580.000000	91.095	-168.3848
590.000000	91.088	-167.8842
600.000000	91.080	-167.3723
608.000000	91.075	-166.9543
615.000000	91.072	-166.5836
622.000000	91.069	-166.2100
630.000000	91.068	-165.7817
640.000000	91.068	-165.2452
650.000000	91.070	-164.7051
660.000000	91.075	-164.1614
670.000000	91.081	-163.6116
680.000000	91.089	-163.0592
690.000000	91.099	-162.5063
700.000000	91.111	-161.9523
710.000000	91.125	-161.3985
720.000000	91.140	-160.8450
730.000000	91.158	-160.2884
740.000000	91.177	-159.7304
750.000000	91.199	-159.1730
762.000000	91.228	-158.5041
775.000000	91.263	-157.7814
788.000000	91.301	-157.0610
800.000000	91.340	-156.4031
812.000000	91.382	-155.7512
825.000000	91.431	-155.0497
838.000000	91.483	-154.3531
850.000000	91.535	-153.7167
862.000000	91.591	-153.0907
875.000000	91.655	-152.4260
885.000000	91.707	-151.9243
900.000000	91.788	-151.1936
912.000000	91.857	-150.6293
925.000000	91.934	-150.0379
938.000000	92.015	-149.4676
950.000000	92.090	-148.9624
962.000000	92.168	-148.4786
975.000000	92.254	-147.9745
988.000000	92.342	-147.4860
1000.000000	92.425	-147.0560
1015.000000	92.532	-146.5569
1030.000000	92.636	-146.0874
1044.000000	92.736	-145.6606
1060.000000	92.852	-145.1974
1075.000000	92.964	-144.8009
1090.000000	93.076	-144.4481
1106.000000	93.195	-144.1180
1120.000000	93.298	-143.8542
1138.000000	93.430	-143.5439
1150.000000	93.518	-143.3651
1172.000000	93.678	-143.1055
1180.000000	93.734	-143.0287
1206.000000	93.911	-142.8213
1220.000000	94.004	-142.7302
1241.000000	94.140	-142.6220
1250.000000	94.198	-142.5890
1265.000000	94.292	-142.5525
1280.000000	94.383	-142.5364
1315.000000	94.586	-142.5754
1320.000000	94.614	-142.5904
1340.000000	94.719	-142.6709
1360.000000	94.815	-142.7774
1380.000000	94.901	-142.8962
1400.000000	94.976	-143.0088
1430.000000	95.067	-143.1147
1450.000000	95.116	-143.1090
1475.000000	95.172	-142.9809
1500.000000	95.232	-142.7168
1525.000000	95.302	-142.3493
1550.000000	95.389	-141.9213
1575.000000	95.492	-141.4788
1600.000000	95.609	-141.0610
1625.000000	95.737	-140.6875
1650.000000	95.874	-140.3665
1675.000000	96.016	-140.1009
1700.000000	96.161	-139.8902
1725.000000	96.310	-139.7325
1750.000000	96.460	-139.6237
1775.000000	96.610	-139.5594
1800.000000	96.761	-139.5387
1825.000000	96.912	-139.5603
1850.000000	97.062	-139.6219
1875.000000	97.213	-139.7224
1900.000000	97.362	-139.8614
1925.000000	97.511	-140.0360
1950.000000	97.658	-140.2451
1975.000000	97.804	-140.4902
2000.000000	97.948	-140.7713
2030.000000	98.118	-141.1550
2060.000000	98.286	-141.5869
2090.000000	98.449	-142.0655
2120.000000	98.608	-142.5900
2140.000000	98.712	-142.9642
2180.000000	98.913	-143.7677
2200.000000	99.010	-144.1957
2240.000000	99.198	-145.0971
2270.000000	99.336	-145.8282
2300.000000	99.468	-146.6044
2330.000000	99.592	-147.3999
2360.000000	99.706	-148.2154
2400.000000	99.845	-149.3499
2430.000000	99.940	-150.2284
2470.000000	100.055	-151.4250
2500.000000	100.132	-152.3351
2540.000000	100.224	-153.5635
2580.000000	100.302	-154.8040
2620.000000	100.367	-156.0468
2650.000000	100.407	-156.9758
2690.000000	100.449	-158.2043
2720.000000	100.472	-159.1157
2760.000000	100.494	-160.3133
2800.000000	100.503	-161.4851
2850.000000	100.500	-162.9066
2900.000000	100.481	-164.2692
2950.000000	100.448	-165.5619
3000.000000	100.402	-166.7771
3040.000000	100.358	-167.6912
3070.000000	100.321	-168.3414
3110.000000	100.267	-169.1601
3150.000000	100.209	-169.9239
3200.000000	100.133	-170.8023
3250.000000	100.054	-171.6010
3300.000000	99.973	-172.3272
3350.000000	99.892	-172.9855
3400.000000	99.812	-173.5876
3450.000000	99.731	-174.1461
3500.000000	99.649	-174.6502
3550.000000	99.566	-175.0902
3600.000000	99.485	-175.4676
3650.000000	99.407	-175.7908
3700.000000	99.331	-176.0648
3750.000000	99.257	-176.2869
3820.000000	99.164	-176.5427
3870.000000	99.107	-176.6908
3950.000000	99.029	-176.8683
4000.000000	98.990	-176.9538
4060.000000	98.951	-177.0410
4120.000000	98.923	-177.1181
4180.000000	98.907	-177.1940
4250.000000	98.906	-177.3173
4310.000000	98.919	-177.4967
4370.000000	98.940	-177.7625
4440.000000	98.969	-178.2091
4500.000000	98.991	-178.6898
4550.000000	99.007	-179.1371
4620.000000	99.030	-179.8484
4680.000000	99.049	179.4396
4750.000000	99.064	178.4678
4820.000000	99.065	177.3391
4870.000000	99.052	176.4498
4940.000000	99.012	175.1136
5000.000000	98.954	173.9080
5080.000000	98.840	172.2618
5150.000000	98.703	170.8367
5220.000000	98.533	169.4769
5300.000000	98.299	168.0617
5380.000000	98.028	166.8571
5450.000000	97.767	166.0172
5520.000000	97.490	165.3997
5600.000000	97.161	164.9826
5700.000000	96.745	164.8976
5800.000000	96.338	165.2902
5900.000000	95.955	166.1286
6000.000000	95.607	167.3569
6080.000000	95.361	168.5817
6150.000000	95.172	169.8040
6220.000000	95.008	171.1480
6300.000000	94.856	172.8129
6400.000000	94.721	175.0544
6500.000000	94.654	177.4346
6600.000000	94.661	179.9037
6700.000000	94.750	-177.5931
6800.000000	94.930	-175.1190
6900.000000	95.212	-172.7556
7000.000000	95.608	-170.6060
7100.000000	96.136	-168.8118
7200.000000	96.812	-167.5781
7300.000000	97.657	-167.2189
7400.000000	98.680	-168.2408
7500.000000	99.846	-171.4406
7620.000000	101.226	-179.6064
7750.000000	102.177	165.1152
7880.000000	101.993	146.0376
8000.000000	100.741	130.9221
8120.000000	98.857	121.4252
8250.000000	96.662	116.5637
8380.000000	94.600	115.3218
8500.000000	92.888	116.3073
8620.000000	91.379	118.6683
8750.000000	89.959	122.2266
8850.000000	88.999	125.4348
9000.000000	87.744	130.7662
9120.000000	86.876	135.3510
9250.000000	86.054	140.5432
9380.000000	85.342	145.9072
9500.000000	84.772	150.9656
9620.000000	84.281	156.1009
9750.000000	83.829	161.7339
9880.000000	83.458	167.4149
10000.000000	83.186	172.6836
10150.000000	82.942	179.2881
10300.000000	82.807	-174.1102
10440.000000	82.783	-167.9907
10600.000000	82.892	-161.0962
10750.000000	83.147	-154.8089
10900.000000	83.588	-148.8703
11060.000000	84.337	-143.5298
11200.000000	85.215	-141.2401
11380.000000	85.937	-144.4630
11500.000000	85.487	-146.2638
11720.000000	84.479	-130.9432
11800.000000	85.085	-123.4742
12060.000000	88.878	-110.8437
12200.000000	91.292	-111.1651
12410.000000	94.559	-123.8159
12500.000000	95.447	-134.6150
12650.000000	95.828	-156.7118
12800.000000	94.820	-176.1686
13150.000000	89.981	168.5099
13200.000000	89.323	168.7048
13400.000000	87.140	171.9958
13600.000000	85.624	177.4472
13800.000000	84.626	-176.1918
14000.000000	84.040	-169.4983
14300.000000	83.850	-159.5436
14500.000000	84.200	-153.4669
14750.000000	85.236	-147.6463
15000.000000	86.917	-145.9926
15250.000000	88.825	-152.3089
15500.000000	89.943	-169.2784
15750.000000	89.395	169.3607
16000.000000	87.360	154.6817
16250.000000	84.823	148.6819
16500.000000	82.565	146.7914
16750.000000	80.598	145.7997
17000.000000	78.609	146.9236
17250.000000	76.969	149.0876
17500.000000	75.343	149.9149
17750.000000	73.343	159.6527
18000.000000	73.333	169.7991
18250.000000	73.880	164.2562
18500.000000	72.855	152.5466
18750.000000	70.518	147.4030
19000.000000	67.755	149.8972
19250.000000	65.211	156.9171
19500.000000	63.095	166.0025
19750.000000	61.435	174.9612
