* Measurement data measured by REW V5.20.13
* Source: EXCL: Headset (KM-HIFI-384KHZ), MICROPHONE (Master Volume), 0, volume: 1.000
* Format: 256k Log Swept Sine, 1 sweep at -20.0 dBFS with no timing reference
* Dated: Nov 12, 2023 10:36:27 PM
* REW Settings:
*  C-weighting compensation: Off
*  Target level: 75.0 dB
* Note: ; 
* Measurement: Kinera Norn Show L
* Smoothing: 1/24 octave
* Frequency Step: 1/48 octave
* Start Frequency: 20.000 Hz
*
* Freq(Hz)	SPL(dB)	Phase(degrees)
20.000000	51.045	-130.7840
20.299999	51.470	-130.9521
20.600000	51.831	-131.8168
20.900000	52.100	-133.0072
21.200001	52.286	-134.1194
21.400000	52.385	-134.6906
21.799999	52.565	-135.4264
22.000000	52.663	-135.6371
22.400000	52.894	-135.9451
22.700001	53.090	-136.2256
23.000000	53.290	-136.6238
23.299999	53.479	-137.1275
23.600000	53.649	-137.6893
24.000000	53.836	-138.4076
24.299999	53.949	-138.8008
24.700001	54.085	-138.9925
25.000000	54.203	-138.8721
25.400000	54.417	-138.5190
25.799999	54.703	-138.3315
26.200001	55.016	-138.6688
26.500000	55.226	-139.2886
26.900000	55.433	-140.3630
27.200001	55.536	-141.0775
27.600000	55.641	-141.6217
28.000000	55.784	-141.7063
28.500000	56.082	-141.7592
29.000000	56.452	-142.5293
29.500000	56.776	-144.0748
30.000000	57.006	-145.7540
30.400000	57.158	-146.8255
30.700001	57.280	-147.4621
31.100000	57.470	-148.2541
31.500000	57.678	-149.1422
32.000000	57.922	-150.4284
32.500000	58.128	-151.7094
33.000000	58.310	-152.8112
33.500000	58.482	-153.7723
34.000000	58.636	-154.6772
34.500000	58.757	-155.4971
35.000000	58.844	-156.1450
35.500000	58.902	-156.5295
36.000000	58.954	-156.5519
36.500000	59.049	-156.2508
37.000000	59.230	-156.0847
37.500000	59.445	-156.7075
38.200001	59.540	-158.8366
38.700001	59.378	-159.7249
39.500000	59.257	-157.5353
40.000000	59.637	-155.7770
40.599998	60.338	-156.4103
41.200001	60.800	-160.0668
41.799999	60.889	-164.0300
42.500000	60.821	-166.5828
43.099998	60.893	-167.6539
43.700001	61.056	-168.9347
44.400002	61.209	-170.6649
45.000000	61.306	-171.7689
45.500000	61.408	-172.4081
46.200001	61.588	-173.2391
46.799999	61.744	-174.0416
47.500000	61.903	-174.9914
48.200001	62.040	-175.8752
48.700001	62.127	-176.4421
49.400002	62.246	-177.0996
50.000000	62.364	-177.5640
50.799999	62.560	-178.2973
51.500000	62.733	-179.2439
52.200001	62.866	179.6513
53.000000	62.970	178.5576
53.799999	63.064	177.8494
54.500000	63.176	177.4718
55.200001	63.325	177.1231
56.000000	63.528	176.5733
57.000000	63.803	175.4780
58.000000	64.031	173.8368
59.000000	64.167	172.2289
60.000000	64.283	171.0589
60.799999	64.389	170.3309
61.500000	64.500	169.8053
62.200001	64.629	169.2760
63.000000	64.778	168.5655
64.000000	64.939	167.6267
65.000000	65.074	166.7631
66.000000	65.199	166.0169
67.000000	65.333	165.2625
68.000000	65.458	164.4016
69.000000	65.570	163.5657
70.000000	65.689	162.8152
71.000000	65.824	162.0292
72.000000	65.949	161.1454
73.000000	66.063	160.3318
74.000000	66.185	159.4953
75.000000	66.287	158.5446
76.199997	66.384	157.5501
77.500000	66.506	156.6994
78.800003	66.676	155.8218
80.000000	66.800	154.7918
81.199997	66.894	154.2211
82.500000	67.047	153.7637
83.800003	67.192	153.1682
85.000000	67.318	152.5744
86.199997	67.427	151.8681
87.500000	67.526	151.1191
88.500000	67.604	150.5937
90.000000	67.729	149.8416
91.199997	67.835	149.3014
92.500000	67.955	148.7675
93.800003	68.078	148.2531
95.000000	68.186	147.7605
96.199997	68.289	147.2697
97.500000	68.397	146.6976
98.800003	68.500	146.1433
100.000000	68.600	145.6439
101.500000	68.721	144.9844
103.000000	68.827	144.3966
104.400002	68.926	143.9583
106.000000	69.049	143.4615
107.500000	69.163	142.9702
109.000000	69.279	142.4984
110.599998	69.405	141.9819
112.000000	69.512	141.5228
113.800003	69.638	140.9267
115.000000	69.719	140.5371
117.199997	69.864	139.7699
118.000000	69.914	139.4832
120.599998	70.053	138.7539
122.000000	70.139	138.5987
124.099998	70.296	138.2818
125.000000	70.358	138.0784
126.500000	70.447	137.7260
128.000000	70.531	137.3996
131.500000	70.730	136.6869
132.000000	70.758	136.5846
134.000000	70.872	136.1797
136.000000	70.985	135.7808
138.000000	71.102	135.4164
140.000000	71.216	135.1024
143.000000	71.384	134.6958
145.000000	71.494	134.3793
147.500000	71.628	133.9314
150.000000	71.761	133.5473
152.500000	71.893	133.3067
155.000000	72.019	133.1041
157.500000	72.139	132.7986
160.000000	72.246	132.4574
162.500000	72.358	132.2030
165.000000	72.478	131.9271
167.500000	72.600	131.6452
170.000000	72.722	131.4175
172.500000	72.845	131.2683
175.000000	72.963	131.1195
177.500000	73.071	130.9795
180.000000	73.177	130.8293
182.500000	73.278	130.7182
185.000000	73.397	130.6501
187.500000	73.515	130.5145
190.000000	73.620	130.4596
192.500000	73.732	130.4588
195.000000	73.842	130.2819
197.500000	73.926	130.1309
200.000000	74.034	130.1562
203.000000	74.181	130.0407
206.000000	74.293	129.9101
209.000000	74.409	129.9301
212.000000	74.530	129.9218
214.000000	74.606	129.9196
218.000000	74.756	129.9522
220.000000	74.842	129.9415
224.000000	74.997	129.9026
227.000000	75.127	129.9085
230.000000	75.225	129.7469
233.000000	75.296	129.8298
236.000000	75.404	130.0571
240.000000	75.564	130.1676
243.000000	75.673	130.0983
247.000000	75.800	130.0375
250.000000	75.903	130.1117
254.000000	76.036	130.1852
258.000000	76.168	130.2503
262.000000	76.311	130.3578
265.000000	76.431	130.4431
269.000000	76.588	130.5011
272.000000	76.686	130.5412
276.000000	76.812	130.6407
280.000000	76.949	130.7868
285.000000	77.088	130.9964
290.000000	77.201	131.1546
295.000000	77.330	131.3590
300.000000	77.474	131.5498
304.000000	77.595	131.7322
307.000000	77.683	131.9343
311.000000	77.791	132.2551
315.000000	77.892	132.6130
320.000000	78.016	133.0803
325.000000	78.138	133.3500
330.000000	78.273	133.5074
335.000000	78.422	133.7185
340.000000	78.566	134.0494
345.000000	78.694	134.3682
350.000000	78.825	134.6976
355.000000	78.963	135.0535
360.000000	79.101	135.4087
365.000000	79.222	135.7880
370.000000	79.338	136.1805
375.000000	79.470	136.6142
382.000000	79.648	137.2255
387.000000	79.775	137.6480
395.000000	79.976	138.3735
400.000000	80.100	138.8110
406.000000	80.255	139.3436
412.000000	80.408	139.8953
418.000000	80.560	140.4242
425.000000	80.735	141.0258
431.000000	80.882	141.5341
437.000000	81.029	142.0306
444.000000	81.199	142.6208
450.000000	81.344	143.1357
455.000000	81.462	143.5689
462.000000	81.625	144.1909
468.000000	81.765	144.7426
475.000000	81.929	145.3840
482.000000	82.090	146.0163
487.000000	82.206	146.4853
494.000000	82.369	147.1418
500.000000	82.512	147.6994
508.000000	82.704	148.4384
515.000000	82.873	149.0746
522.000000	83.043	149.6919
530.000000	83.237	150.3624
538.000000	83.427	151.0290
545.000000	83.590	151.6111
552.000000	83.751	152.1953
560.000000	83.934	152.8573
570.000000	84.163	153.6675
580.000000	84.389	154.4788
590.000000	84.613	155.2860
600.000000	84.835	156.1037
608.000000	85.013	156.7520
615.000000	85.168	157.3067
622.000000	85.324	157.8578
630.000000	85.501	158.4930
640.000000	85.721	159.2877
650.000000	85.940	160.0810
660.000000	86.158	160.8750
670.000000	86.373	161.6562
680.000000	86.588	162.4187
690.000000	86.804	163.1720
700.000000	87.018	163.9114
710.000000	87.230	164.6323
720.000000	87.440	165.3444
730.000000	87.647	166.0483
740.000000	87.852	166.7444
750.000000	88.055	167.4341
762.000000	88.294	168.2563
775.000000	88.548	169.1478
788.000000	88.798	170.0524
800.000000	89.027	170.9022
812.000000	89.254	171.7673
825.000000	89.499	172.7293
838.000000	89.744	173.7213
850.000000	89.971	174.6591
862.000000	90.202	175.6152
875.000000	90.459	176.6671
885.000000	90.661	177.4838
900.000000	90.972	178.7052
912.000000	91.228	179.6616
925.000000	91.512	-179.3344
938.000000	91.801	-178.3718
950.000000	92.071	-177.5250
962.000000	92.344	-176.7158
975.000000	92.641	-175.8853
988.000000	92.940	-175.1042
1000.000000	93.217	-174.4222
1015.000000	93.562	-173.6172
1030.000000	93.908	-172.8608
1044.000000	94.231	-172.2004
1060.000000	94.600	-171.5004
1075.000000	94.945	-170.8979
1090.000000	95.290	-170.3486
1106.000000	95.657	-169.8214
1120.000000	95.977	-169.4061
1138.000000	96.388	-168.9379
1150.000000	96.661	-168.6695
1172.000000	97.157	-168.2691
1180.000000	97.336	-168.1528
1206.000000	97.911	-167.8705
1220.000000	98.217	-167.7755
1241.000000	98.670	-167.7048
1250.000000	98.863	-167.6992
1265.000000	99.183	-167.7360
1280.000000	99.501	-167.8386
1315.000000	100.229	-168.2658
1320.000000	100.331	-168.3426
1340.000000	100.729	-168.6951
1360.000000	101.117	-169.1385
1380.000000	101.497	-169.6740
1400.000000	101.866	-170.2976
1430.000000	102.399	-171.3841
1450.000000	102.739	-172.2052
1475.000000	103.143	-173.3382
1500.000000	103.522	-174.5948
1525.000000	103.875	-175.9799
1550.000000	104.195	-177.4728
1575.000000	104.477	-179.0283
1600.000000	104.719	179.3953
1625.000000	104.922	177.8336
1650.000000	105.089	176.3172
1675.000000	105.223	174.8706
1700.000000	105.324	173.5155
1725.000000	105.398	172.2687
1750.000000	105.445	171.1446
1775.000000	105.470	170.1566
1800.000000	105.477	169.3104
1825.000000	105.469	168.6045
1850.000000	105.448	168.0416
1875.000000	105.418	167.6222
1900.000000	105.381	167.3398
1925.000000	105.340	167.1881
1950.000000	105.298	167.1603
1975.000000	105.256	167.2445
2000.000000	105.217	167.4294
2030.000000	105.173	167.7708
2060.000000	105.134	168.2274
2090.000000	105.101	168.7876
2120.000000	105.076	169.4341
2140.000000	105.063	169.9053
2180.000000	105.047	170.9348
2200.000000	105.044	171.4898
2240.000000	105.049	172.6711
2270.000000	105.062	173.6118
2300.000000	105.083	174.5883
2330.000000	105.113	175.5909
2360.000000	105.151	176.6131
2400.000000	105.214	177.9958
2430.000000	105.271	179.0416
2470.000000	105.359	-179.5599
2500.000000	105.435	-178.5130
2540.000000	105.548	-177.1318
2580.000000	105.677	-175.7877
2620.000000	105.820	-174.5090
2650.000000	105.936	-173.6080
2690.000000	106.096	-172.4894
2720.000000	106.220	-171.7069
2760.000000	106.390	-170.7261
2800.000000	106.568	-169.8148
2850.000000	106.807	-168.8139
2900.000000	107.064	-168.0396
2950.000000	107.331	-167.5636
3000.000000	107.598	-167.4484
3040.000000	107.800	-167.6519
3070.000000	107.937	-167.9786
3110.000000	108.091	-168.6187
3150.000000	108.204	-169.4399
3200.000000	108.283	-170.6251
3250.000000	108.287	-171.8744
3300.000000	108.215	-173.0706
3350.000000	108.070	-174.0867
3400.000000	107.859	-174.7902
3450.000000	107.599	-175.0749
3500.000000	107.309	-174.8806
3550.000000	107.011	-174.1953
3600.000000	106.726	-173.0494
3650.000000	106.472	-171.5159
3700.000000	106.261	-169.7017
3750.000000	106.099	-167.7204
3820.000000	105.952	-164.8420
3870.000000	105.898	-162.8039
3950.000000	105.891	-159.7035
4000.000000	105.931	-157.9323
4060.000000	106.017	-156.0476
4120.000000	106.137	-154.4911
4180.000000	106.279	-153.3212
4250.000000	106.457	-152.5030
4310.000000	106.605	-152.3031
4370.000000	106.732	-152.5771
4440.000000	106.834	-153.4821
4500.000000	106.866	-154.7175
4550.000000	106.842	-156.0226
4620.000000	106.720	-158.1686
4680.000000	106.526	-160.1814
4750.000000	106.190	-162.5417
4820.000000	105.745	-164.7128
4870.000000	105.372	-166.0530
4940.000000	104.790	-167.5528
5000.000000	104.257	-168.4631
5080.000000	103.528	-169.1626
5150.000000	102.900	-169.3608
5220.000000	102.302	-169.2710
5300.000000	101.681	-168.9583
5380.000000	101.148	-168.5930
5450.000000	100.772	-168.3881
5520.000000	100.493	-168.4445
5600.000000	100.306	-169.0241
5700.000000	100.287	-170.8602
5800.000000	100.509	-174.3696
5900.000000	100.941	179.9680
6000.000000	101.480	171.7944
6080.000000	101.869	163.4748
6150.000000	102.089	155.2281
6220.000000	102.141	146.6331
6300.000000	101.968	137.2356
6400.000000	101.454	127.3916
6500.000000	100.748	120.4978
6600.000000	100.016	116.5948
6700.000000	99.375	115.2271
6800.000000	98.882	115.8217
6900.000000	98.544	117.8864
7000.000000	98.359	121.0725
7100.000000	98.324	125.1131
7200.000000	98.429	129.7304
7300.000000	98.662	134.6958
7400.000000	99.018	139.8301
7500.000000	99.497	144.9567
7620.000000	100.228	150.8219
7750.000000	101.196	156.4095
7880.000000	102.317	160.5914
8000.000000	103.419	162.5545
8120.000000	104.451	162.1329
8250.000000	105.276	158.8927
8380.000000	105.596	153.8266
8500.000000	105.383	149.3666
8620.000000	104.773	146.7224
8750.000000	103.864	146.6740
8850.000000	103.120	148.5065
9000.000000	102.087	153.5575
9120.000000	101.391	158.9335
9250.000000	100.783	165.5470
9380.000000	100.319	172.5978
9500.000000	100.002	179.2274
9620.000000	99.770	-174.2228
9750.000000	99.583	-167.3620
9880.000000	99.426	-160.7988
10000.000000	99.279	-154.9696
10150.000000	99.065	-147.8585
10300.000000	98.801	-140.6510
10440.000000	98.519	-133.4789
10600.000000	98.229	-124.5461
10750.000000	98.073	-115.7797
10900.000000	98.043	-107.3002
11060.000000	98.071	-99.1011
11200.000000	98.060	-92.6400
11380.000000	97.924	-84.8280
11500.000000	97.750	-79.6017
11720.000000	97.301	-69.3616
11800.000000	97.117	-65.3471
12060.000000	96.545	-51.3018
12200.000000	96.289	-43.2496
12410.000000	96.017	-30.8260
12500.000000	95.948	-25.4714
12650.000000	95.904	-16.6534
12800.000000	95.945	-8.1378
13150.000000	96.299	9.4313
13200.000000	96.366	11.5767
13400.000000	96.621	19.0348
13600.000000	96.764	24.6326
13800.000000	96.666	28.7098
14000.000000	96.232	32.2433
14300.000000	94.966	39.4752
14500.000000	93.896	46.8487
14750.000000	92.584	58.7703
15000.000000	91.457	72.8353
15250.000000	90.587	88.2958
15500.000000	90.009	104.5167
15750.000000	89.730	120.8904
16000.000000	89.731	136.8010
16250.000000	89.970	151.5905
16500.000000	90.373	164.5259
16750.000000	90.830	174.6840
17000.000000	91.102	-179.1152
17250.000000	90.701	-176.1975
17500.000000	89.310	-170.4559
17750.000000	87.642	-158.7271
18000.000000	86.278	-145.5279
18250.000000	85.130	-130.4741
18500.000000	84.625	-117.2734
18750.000000	84.111	-108.6788
19000.000000	83.115	-100.3863
19250.000000	81.931	-90.2429
19500.000000	80.808	-79.2700
19750.000000	79.792	-69.1989
