* Measurement data measured by REW V5.20.13
* Source: EXCL: Headset (KM-HIFI-384KHZ), MICROPHONE (Master Volume), 0, volume: 1.000
* Format: 256k Log Swept Sine, 1 sweep at -20.0 dBFS with no timing reference
* Dated: Nov 12, 2023 10:16:58 PM
* REW Settings:
*  C-weighting compensation: Off
*  Target level: 75.0 dB
* Note: ; 
* Measurement: Kinera Urd Show L
* Smoothing: 1/24 octave
* Frequency Step: 1/48 octave
* Start Frequency: 20.000 Hz
*
* Freq(Hz)	SPL(dB)	Phase(degrees)
20.000000	101.787	1.0804
20.299999	101.766	0.5235
20.600000	101.743	-0.0233
20.900000	101.719	-0.5571
21.200001	101.695	-1.0749
21.400000	101.678	-1.4106
21.799999	101.645	-2.0615
22.000000	101.629	-2.3790
22.400000	101.597	-3.0032
22.700001	101.574	-3.4657
23.000000	101.550	-3.9243
23.299999	101.525	-4.3768
23.600000	101.498	-4.8204
24.000000	101.462	-5.3943
24.299999	101.435	-5.8102
24.700001	101.398	-6.3463
25.000000	101.370	-6.7373
25.400000	101.334	-7.2474
25.799999	101.298	-7.7481
26.200001	101.262	-8.2407
26.500000	101.235	-8.6047
26.900000	101.197	-9.0817
27.200001	101.169	-9.4323
27.600000	101.131	-9.8887
28.000000	101.093	-10.3318
28.500000	101.046	-10.8688
29.000000	101.000	-11.3927
29.500000	100.955	-11.9104
30.000000	100.909	-12.4239
30.400000	100.870	-12.8282
30.700001	100.841	-13.1250
31.100000	100.801	-13.5089
31.500000	100.761	-13.8788
32.000000	100.712	-14.3246
32.500000	100.663	-14.7570
33.000000	100.614	-15.1799
33.500000	100.565	-15.5939
34.000000	100.516	-15.9980
34.500000	100.467	-16.3918
35.000000	100.417	-16.7755
35.500000	100.368	-17.1490
36.000000	100.318	-17.5120
36.500000	100.268	-17.8639
37.000000	100.218	-18.2051
37.500000	100.169	-18.5370
38.200001	100.100	-18.9890
38.700001	100.051	-19.3028
39.500000	99.973	-19.7852
40.000000	99.924	-20.0737
40.599998	99.866	-20.4113
41.200001	99.809	-20.7440
41.799999	99.751	-21.0706
42.500000	99.683	-21.4364
43.099998	99.624	-21.7353
43.700001	99.566	-22.0246
44.400002	99.499	-22.3521
45.000000	99.442	-22.6223
45.500000	99.394	-22.8402
46.200001	99.328	-23.1365
46.799999	99.272	-23.3826
47.500000	99.206	-23.6599
48.200001	99.141	-23.9263
48.700001	99.095	-24.1093
49.400002	99.030	-24.3528
50.000000	98.976	-24.5522
50.799999	98.905	-24.8124
51.500000	98.842	-25.0349
52.200001	98.780	-25.2462
53.000000	98.709	-25.4738
53.799999	98.640	-25.6932
54.500000	98.579	-25.8797
55.200001	98.518	-26.0593
56.000000	98.450	-26.2567
57.000000	98.365	-26.4945
58.000000	98.281	-26.7222
59.000000	98.198	-26.9366
60.000000	98.117	-27.1342
60.799999	98.054	-27.2850
61.500000	98.000	-27.4142
62.200001	97.946	-27.5378
63.000000	97.884	-27.6697
64.000000	97.808	-27.8220
65.000000	97.732	-27.9618
66.000000	97.657	-28.0917
67.000000	97.582	-28.2101
68.000000	97.509	-28.3207
69.000000	97.437	-28.4315
70.000000	97.366	-28.5369
71.000000	97.295	-28.6282
72.000000	97.225	-28.7095
73.000000	97.157	-28.7882
74.000000	97.089	-28.8602
75.000000	97.022	-28.9236
76.199997	96.942	-28.9935
77.500000	96.857	-29.0605
78.800003	96.773	-29.1210
80.000000	96.697	-29.1683
81.199997	96.622	-29.2063
82.500000	96.542	-29.2371
83.800003	96.464	-29.2598
85.000000	96.392	-29.2715
86.199997	96.321	-29.2755
87.500000	96.246	-29.2772
88.500000	96.189	-29.2771
90.000000	96.104	-29.2687
91.199997	96.037	-29.2549
92.500000	95.966	-29.2349
93.800003	95.895	-29.2098
95.000000	95.830	-29.1772
96.199997	95.766	-29.1374
97.500000	95.698	-29.0917
98.800003	95.631	-29.0432
100.000000	95.569	-28.9928
101.500000	95.494	-28.9232
103.000000	95.420	-28.8495
104.400002	95.351	-28.7704
106.000000	95.272	-28.6683
107.500000	95.197	-28.5562
109.000000	95.123	-28.4324
110.599998	95.045	-28.2955
112.000000	94.980	-28.1691
113.800003	94.898	-27.9941
115.000000	94.844	-27.8577
117.199997	94.748	-27.5591
118.000000	94.714	-27.4425
120.599998	94.604	-27.0526
122.000000	94.550	-26.8074
124.099998	94.482	-26.4337
125.000000	94.453	-26.2644
126.500000	94.404	-25.9225
128.000000	94.365	-25.5455
131.500000	94.283	-24.7510
132.000000	94.277	-24.6385
134.000000	94.271	-24.2986
136.000000	94.278	-24.1147
138.000000	94.278	-24.0623
140.000000	94.260	-24.0472
143.000000	94.214	-24.0641
145.000000	94.173	-24.0676
147.500000	94.122	-24.0632
150.000000	94.061	-24.0896
152.500000	93.986	-24.0912
155.000000	93.916	-24.0101
157.500000	93.858	-23.8850
160.000000	93.806	-23.7102
162.500000	93.754	-23.5222
165.000000	93.694	-23.3446
167.500000	93.631	-23.1743
170.000000	93.571	-23.0219
172.500000	93.515	-22.8420
175.000000	93.467	-22.6212
177.500000	93.419	-22.3910
180.000000	93.374	-22.1561
182.500000	93.336	-21.9652
185.000000	93.296	-21.8048
187.500000	93.249	-21.5844
190.000000	93.202	-21.3654
192.500000	93.156	-21.2014
195.000000	93.115	-21.0343
197.500000	93.078	-20.8490
200.000000	93.033	-20.6710
203.000000	92.977	-20.4547
206.000000	92.936	-20.2866
209.000000	92.895	-20.0955
212.000000	92.853	-19.8511
214.000000	92.826	-19.6818
218.000000	92.780	-19.2809
220.000000	92.757	-19.0836
224.000000	92.698	-18.7763
227.000000	92.658	-18.5596
230.000000	92.630	-18.3563
233.000000	92.603	-18.1619
236.000000	92.580	-17.9635
240.000000	92.535	-17.7313
243.000000	92.489	-17.5060
247.000000	92.440	-17.1740
250.000000	92.410	-16.9378
254.000000	92.367	-16.6796
258.000000	92.325	-16.4429
262.000000	92.284	-16.1737
265.000000	92.253	-15.9603
269.000000	92.210	-15.6786
272.000000	92.179	-15.4753
276.000000	92.140	-15.2007
280.000000	92.103	-14.9203
285.000000	92.057	-14.5656
290.000000	92.014	-14.2086
295.000000	91.975	-13.8649
300.000000	91.936	-13.5187
304.000000	91.904	-13.2540
307.000000	91.882	-13.0578
311.000000	91.853	-12.7836
315.000000	91.824	-12.5026
320.000000	91.787	-12.1598
325.000000	91.754	-11.8338
330.000000	91.724	-11.5027
335.000000	91.690	-11.1647
340.000000	91.659	-10.8214
345.000000	91.630	-10.4957
350.000000	91.601	-10.1820
355.000000	91.576	-9.8774
360.000000	91.550	-9.5779
365.000000	91.525	-9.2719
370.000000	91.500	-8.9572
375.000000	91.474	-8.6434
382.000000	91.442	-8.2032
387.000000	91.420	-7.8997
395.000000	91.385	-7.4202
400.000000	91.364	-7.1213
406.000000	91.339	-6.7640
412.000000	91.315	-6.4081
418.000000	91.291	-6.0491
425.000000	91.265	-5.6346
431.000000	91.244	-5.2820
437.000000	91.225	-4.9315
444.000000	91.202	-4.5202
450.000000	91.183	-4.1796
455.000000	91.169	-3.9075
462.000000	91.150	-3.5264
468.000000	91.134	-3.1848
475.000000	91.115	-2.7925
482.000000	91.097	-2.4149
487.000000	91.084	-2.1484
494.000000	91.066	-1.7714
500.000000	91.051	-1.4474
508.000000	91.033	-1.0294
515.000000	91.018	-0.6709
522.000000	91.001	-0.3077
530.000000	90.980	0.1113
538.000000	90.960	0.5274
545.000000	90.942	0.8931
552.000000	90.925	1.2624
560.000000	90.905	1.6909
570.000000	90.880	2.2371
580.000000	90.856	2.7948
590.000000	90.833	3.3650
600.000000	90.812	3.9536
608.000000	90.796	4.4338
615.000000	90.783	4.8597
622.000000	90.771	5.2922
630.000000	90.759	5.7967
640.000000	90.747	6.4438
650.000000	90.739	7.1066
660.000000	90.736	7.7823
670.000000	90.738	8.4672
680.000000	90.746	9.1558
690.000000	90.762	9.8351
700.000000	90.783	10.4940
710.000000	90.810	11.1260
720.000000	90.840	11.7275
730.000000	90.873	12.2954
740.000000	90.907	12.8306
750.000000	90.942	13.3387
762.000000	90.982	13.9204
775.000000	91.024	14.5226
788.000000	91.066	15.1079
800.000000	91.104	15.6379
812.000000	91.142	16.1594
825.000000	91.183	16.7167
838.000000	91.226	17.2693
850.000000	91.266	17.7761
862.000000	91.307	18.2776
875.000000	91.354	18.8080
885.000000	91.392	19.2070
900.000000	91.451	19.7913
912.000000	91.500	20.2438
925.000000	91.554	20.7191
938.000000	91.610	21.1773
950.000000	91.664	21.5806
962.000000	91.718	21.9657
975.000000	91.778	22.3634
988.000000	91.839	22.7372
1000.000000	91.895	23.0589
1015.000000	91.964	23.4305
1030.000000	92.033	23.7739
1044.000000	92.096	24.0691
1060.000000	92.166	24.3761
1075.000000	92.228	24.6342
1090.000000	92.287	24.8684
1106.000000	92.345	25.0994
1120.000000	92.392	25.2902
1138.000000	92.446	25.5281
1150.000000	92.478	25.6884
1172.000000	92.527	26.0010
1180.000000	92.542	26.1274
1206.000000	92.581	26.6307
1220.000000	92.599	26.9895
1241.000000	92.632	27.6808
1250.000000	92.653	28.0345
1265.000000	92.705	28.6807
1280.000000	92.785	29.3404
1315.000000	93.068	30.3705
1320.000000	93.112	30.4173
1340.000000	93.272	30.3680
1360.000000	93.389	30.0966
1380.000000	93.462	29.8034
1400.000000	93.504	29.5980
1430.000000	93.538	29.5180
1450.000000	93.553	29.6127
1475.000000	93.573	29.8703
1500.000000	93.601	30.2349
1525.000000	93.639	30.6614
1550.000000	93.685	31.1282
1575.000000	93.738	31.6284
1600.000000	93.800	32.1557
1625.000000	93.871	32.6967
1650.000000	93.952	33.2336
1675.000000	94.042	33.7551
1700.000000	94.138	34.2511
1725.000000	94.240	34.7238
1750.000000	94.348	35.1743
1775.000000	94.461	35.5867
1800.000000	94.575	35.9545
1825.000000	94.685	36.2991
1850.000000	94.791	36.6646
1875.000000	94.897	37.0987
1900.000000	95.010	37.6417
1925.000000	95.143	38.2978
1950.000000	95.313	39.0123
1975.000000	95.526	39.6712
2000.000000	95.780	40.1395
2030.000000	96.118	40.3139
2060.000000	96.463	40.0128
2090.000000	96.791	39.2620
2120.000000	97.081	38.1488
2140.000000	97.246	37.2749
2180.000000	97.515	35.4060
2200.000000	97.625	34.4627
2240.000000	97.808	32.5827
2270.000000	97.917	31.1719
2300.000000	98.001	29.7673
2330.000000	98.060	28.3939
2360.000000	98.097	27.0861
2400.000000	98.119	25.4838
2430.000000	98.123	24.3964
2470.000000	98.119	23.1005
2500.000000	98.118	22.2238
2540.000000	98.128	21.0894
2580.000000	98.143	19.8687
2620.000000	98.143	18.5142
2650.000000	98.123	17.4532
2690.000000	98.066	16.0721
2720.000000	98.004	15.1072
2760.000000	97.902	13.9453
2800.000000	97.784	12.9381
2850.000000	97.623	11.9116
2900.000000	97.455	11.1498
2950.000000	97.290	10.6398
3000.000000	97.135	10.3522
3040.000000	97.022	10.2596
3070.000000	96.944	10.2601
3110.000000	96.851	10.3398
3150.000000	96.771	10.4951
3200.000000	96.691	10.7732
3250.000000	96.631	11.1179
3300.000000	96.592	11.5030
3350.000000	96.572	11.9120
3400.000000	96.570	12.3369
3450.000000	96.586	12.7706
3500.000000	96.622	13.2020
3550.000000	96.678	13.6115
3600.000000	96.753	13.9747
3650.000000	96.847	14.2668
3700.000000	96.957	14.4677
3750.000000	97.079	14.5679
3820.000000	97.264	14.5464
3870.000000	97.405	14.4374
3950.000000	97.657	14.1210
4000.000000	97.840	13.7817
4060.000000	98.088	13.1092
4120.000000	98.355	12.0139
4180.000000	98.616	10.3940
4250.000000	98.872	7.8214
4310.000000	99.017	5.1459
4370.000000	99.075	2.2297
4440.000000	99.031	-1.2130
4500.000000	98.905	-3.9824
4550.000000	98.748	-6.0316
4620.000000	98.474	-8.4301
4680.000000	98.225	-10.0996
4750.000000	97.954	-11.7404
4820.000000	97.711	-13.2482
4870.000000	97.550	-14.3694
4940.000000	97.322	-16.1277
5000.000000	97.102	-17.8420
5080.000000	96.733	-20.3187
5150.000000	96.317	-22.4388
5220.000000	95.811	-24.2483
5300.000000	95.145	-25.6739
5380.000000	94.424	-26.2692
5450.000000	93.780	-26.0967
5520.000000	93.148	-25.3365
5600.000000	92.459	-23.8615
5700.000000	91.662	-21.3057
5800.000000	90.940	-18.1729
5900.000000	90.268	-14.6154
6000.000000	89.588	-10.5381
6080.000000	88.969	-6.3531
6150.000000	88.356	-0.7714
6220.000000	87.971	8.4348
6300.000000	88.857	22.2124
6400.000000	91.177	29.5495
6500.000000	92.154	23.7341
6600.000000	92.050	19.3627
6700.000000	91.769	18.8822
6800.000000	91.616	20.2582
6900.000000	91.614	22.3776
7000.000000	91.750	24.7607
7100.000000	92.013	27.1400
7200.000000	92.396	29.2891
7300.000000	92.881	31.0393
7400.000000	93.461	32.2945
7500.000000	94.132	32.8909
7620.000000	95.027	32.4066
7750.000000	96.031	30.0386
7880.000000	96.953	25.5238
8000.000000	97.608	19.5764
8120.000000	97.976	12.5360
8250.000000	98.012	4.8370
8380.000000	97.732	-1.7367
8500.000000	97.308	-6.2032
8620.000000	96.844	-9.0905
8750.000000	96.402	-10.7539
8850.000000	96.153	-11.3130
9000.000000	95.968	-11.5582
9120.000000	95.993	-11.7139
9250.000000	96.183	-12.3489
9380.000000	96.510	-14.0017
9500.000000	96.868	-16.9113
9620.000000	97.184	-21.4794
9750.000000	97.344	-28.3027
9880.000000	97.183	-36.4681
10000.000000	96.692	-44.2148
10150.000000	95.642	-52.7395
10300.000000	94.234	-58.9697
10440.000000	92.738	-62.4867
10600.000000	90.956	-64.0279
10750.000000	89.309	-63.4518
10900.000000	87.747	-61.3171
11060.000000	86.214	-57.7371
11200.000000	85.004	-53.8129
11380.000000	83.630	-48.0343
11500.000000	82.827	-43.8712
11720.000000	81.583	-35.8758
11800.000000	81.204	-32.9158
12060.000000	80.230	-23.3368
12200.000000	79.864	-18.2814
12410.000000	79.518	-10.9220
12500.000000	79.447	-7.8738
12650.000000	79.430	-2.9789
12800.000000	79.542	1.6187
13150.000000	80.289	10.6366
13200.000000	80.446	11.6530
13400.000000	81.174	14.7590
13600.000000	81.979	15.9561
13800.000000	82.705	14.8989
14000.000000	83.159	11.8303
14300.000000	83.033	6.2104
14500.000000	82.424	4.2410
14750.000000	81.314	5.5768
15000.000000	80.128	11.0906
15250.000000	79.105	19.8124
15500.000000	78.383	30.6812
15750.000000	78.057	42.6357
16000.000000	78.191	54.2832
16250.000000	78.722	63.6668
16500.000000	79.340	68.7908
16750.000000	79.567	69.2731
17000.000000	79.064	67.6494
17250.000000	77.866	67.3904
17500.000000	76.269	69.6812
17750.000000	74.521	73.6808
18000.000000	72.739	78.1599
18250.000000	70.987	81.3723
18500.000000	69.194	81.2027
18750.000000	67.137	76.7529
19000.000000	64.696	68.7154
19250.000000	62.057	58.6649
19500.000000	59.681	49.1109
19750.000000	57.952	43.0987
