* Measurement data measured by REW V5.20.13
* Source: EXCL: Headset (3- KM-HIFI-384KHZ), MICROPHONE (Master Volume), 0, volume: 1.000
* Format: 256k Log Swept Sine, 1 sweep at -24.0 dBFS with no timing reference
* Dated: Sep 24, 2023 12:08:13 PM
* REW Settings:
*  C-weighting compensation: Off
*  Target level: 75.0 dB
* Note: ; 
* Measurement: Moondrop  Blessing 2: Dusk R
* Smoothing: 1/24 octave
* Frequency Step: 1/48 octave
* Start Frequency: 20.000 Hz
*
* Freq(Hz)	SPL(dB)	Phase(degrees)
20.000000	82.548	16.2516
20.299999	82.547	15.6910
20.600000	82.547	15.1460
20.900000	82.546	14.6133
21.200001	82.544	14.0916
21.400000	82.543	13.7499
21.799999	82.539	13.0823
22.000000	82.537	12.7561
22.400000	82.533	12.1173
22.700001	82.529	11.6470
23.000000	82.525	11.1823
23.299999	82.520	10.7237
23.600000	82.514	10.2736
24.000000	82.504	9.6915
24.299999	82.496	9.2704
24.700001	82.486	8.7256
25.000000	82.479	8.3214
25.400000	82.471	7.7760
25.799999	82.461	7.2173
26.200001	82.444	6.6589
26.500000	82.427	6.2603
26.900000	82.402	5.7823
27.200001	82.384	5.4728
27.600000	82.367	5.1117
28.000000	82.364	4.7589
28.500000	82.373	4.2345
29.000000	82.380	3.5735
29.500000	82.365	2.8501
30.000000	82.330	2.2066
30.400000	82.297	1.8062
30.700001	82.276	1.5667
31.100000	82.258	1.2869
31.500000	82.250	1.0061
32.000000	82.247	0.6106
32.500000	82.243	0.1688
33.000000	82.236	-0.2910
33.500000	82.223	-0.7510
34.000000	82.206	-1.2015
34.500000	82.185	-1.6297
35.000000	82.161	-2.0255
35.500000	82.139	-2.3937
36.000000	82.119	-2.7531
36.500000	82.101	-3.1210
37.000000	82.083	-3.5032
37.500000	82.064	-3.8944
38.200001	82.034	-4.4424
38.700001	82.012	-4.8315
39.500000	81.977	-5.4602
40.000000	81.952	-5.8463
40.599998	81.919	-6.2689
41.200001	81.891	-6.6345
41.799999	81.872	-6.9869
42.500000	81.856	-7.4440
43.099998	81.837	-7.8596
43.700001	81.815	-8.2542
44.400002	81.789	-8.6899
45.000000	81.766	-9.0654
45.500000	81.744	-9.3730
46.200001	81.712	-9.7764
46.799999	81.685	-10.1084
47.500000	81.653	-10.5022
48.200001	81.620	-10.8885
48.700001	81.596	-11.1535
49.400002	81.566	-11.5273
50.000000	81.540	-11.8615
50.799999	81.502	-12.3059
51.500000	81.469	-12.6766
52.200001	81.435	-13.0334
53.000000	81.398	-13.4261
53.799999	81.361	-13.8014
54.500000	81.330	-14.1203
55.200001	81.298	-14.4360
56.000000	81.259	-14.7822
57.000000	81.214	-15.1655
58.000000	81.178	-15.5974
59.000000	81.126	-16.1135
60.000000	81.060	-16.4962
60.799999	81.020	-16.7455
61.500000	80.991	-17.0093
62.200001	80.958	-17.2976
63.000000	80.917	-17.6122
64.000000	80.868	-17.9865
65.000000	80.818	-18.3500
66.000000	80.768	-18.6926
67.000000	80.719	-19.0199
68.000000	80.671	-19.3417
69.000000	80.622	-19.6546
70.000000	80.574	-19.9662
71.000000	80.524	-20.2800
72.000000	80.474	-20.5876
73.000000	80.424	-20.8883
74.000000	80.375	-21.1825
75.000000	80.325	-21.4733
76.199997	80.265	-21.8154
77.500000	80.199	-22.1676
78.800003	80.133	-22.4979
80.000000	80.073	-22.7884
81.199997	80.014	-23.0784
82.500000	79.947	-23.3822
83.800003	79.881	-23.6622
85.000000	79.821	-23.9261
86.199997	79.758	-24.1820
87.500000	79.692	-24.4408
88.500000	79.643	-24.6310
90.000000	79.572	-24.9265
91.199997	79.514	-25.1661
92.500000	79.449	-25.4126
93.800003	79.383	-25.6410
95.000000	79.321	-25.8382
96.199997	79.261	-26.0323
97.500000	79.197	-26.2452
98.800003	79.132	-26.4498
100.000000	79.072	-26.6260
101.500000	78.998	-26.8349
103.000000	78.923	-27.0231
104.400002	78.853	-27.1906
106.000000	78.773	-27.3854
107.500000	78.697	-27.5494
109.000000	78.622	-27.6858
110.599998	78.543	-27.8131
112.000000	78.475	-27.9030
113.800003	78.391	-28.0214
115.000000	78.336	-28.1182
117.199997	78.236	-28.2828
118.000000	78.201	-28.3340
120.599998	78.083	-28.5088
122.000000	78.012	-28.5621
124.099998	77.909	-28.6205
125.000000	77.865	-28.6561
126.500000	77.793	-28.7200
128.000000	77.721	-28.7662
131.500000	77.559	-28.7844
132.000000	77.535	-28.7803
134.000000	77.443	-28.7499
136.000000	77.354	-28.7100
138.000000	77.268	-28.6267
140.000000	77.191	-28.4697
143.000000	77.096	-28.2507
145.000000	77.038	-28.1819
147.500000	76.970	-28.1768
150.000000	76.898	-28.2289
152.500000	76.816	-28.2856
155.000000	76.725	-28.3263
157.500000	76.634	-28.3411
160.000000	76.544	-28.3406
162.500000	76.452	-28.3162
165.000000	76.360	-28.2675
167.500000	76.265	-28.2022
170.000000	76.171	-28.1038
172.500000	76.080	-27.9891
175.000000	75.989	-27.8568
177.500000	75.899	-27.7035
180.000000	75.812	-27.5388
182.500000	75.727	-27.3720
185.000000	75.643	-27.1989
187.500000	75.561	-27.0186
190.000000	75.479	-26.8289
192.500000	75.399	-26.6240
195.000000	75.321	-26.4056
197.500000	75.243	-26.1738
200.000000	75.166	-25.9331
203.000000	75.075	-25.6359
206.000000	74.988	-25.3247
209.000000	74.904	-25.0066
212.000000	74.822	-24.6733
214.000000	74.769	-24.4390
218.000000	74.666	-23.9530
220.000000	74.615	-23.7006
224.000000	74.516	-23.1829
227.000000	74.447	-22.7953
230.000000	74.381	-22.4007
233.000000	74.318	-21.9909
236.000000	74.261	-21.5684
240.000000	74.191	-21.0170
243.000000	74.141	-20.6274
247.000000	74.076	-20.1377
250.000000	74.028	-19.7858
254.000000	73.967	-19.3199
258.000000	73.905	-18.8552
262.000000	73.845	-18.3958
265.000000	73.799	-18.0476
269.000000	73.739	-17.5724
272.000000	73.696	-17.2094
276.000000	73.639	-16.7194
280.000000	73.586	-16.2279
285.000000	73.522	-15.6090
290.000000	73.463	-14.9846
295.000000	73.406	-14.3695
300.000000	73.353	-13.7524
304.000000	73.314	-13.2498
307.000000	73.286	-12.8740
311.000000	73.250	-12.3755
315.000000	73.216	-11.8759
320.000000	73.175	-11.2574
325.000000	73.138	-10.6507
330.000000	73.105	-10.0519
335.000000	73.075	-9.4616
340.000000	73.047	-8.8799
345.000000	73.021	-8.3017
350.000000	72.998	-7.7252
355.000000	72.977	-7.1599
360.000000	72.957	-6.6047
365.000000	72.938	-6.0589
370.000000	72.921	-5.5197
375.000000	72.907	-4.9814
382.000000	72.890	-4.2374
387.000000	72.879	-3.7170
395.000000	72.863	-2.8979
400.000000	72.855	-2.3944
406.000000	72.847	-1.7981
412.000000	72.842	-1.2119
418.000000	72.838	-0.6292
425.000000	72.835	0.0511
431.000000	72.835	0.6285
437.000000	72.836	1.1960
444.000000	72.841	1.8488
450.000000	72.848	2.3999
455.000000	72.856	2.8481
462.000000	72.870	3.4526
468.000000	72.883	3.9551
475.000000	72.902	4.5159
482.000000	72.920	5.0448
487.000000	72.933	5.4114
494.000000	72.951	5.9092
500.000000	72.966	6.3210
508.000000	72.984	6.8540
515.000000	72.998	7.3087
522.000000	73.012	7.7505
530.000000	73.027	8.2528
538.000000	73.042	8.7568
545.000000	73.054	9.1866
552.000000	73.067	9.6093
560.000000	73.082	10.0956
570.000000	73.100	10.7054
580.000000	73.117	11.3098
590.000000	73.135	11.9111
600.000000	73.153	12.5068
608.000000	73.168	12.9800
615.000000	73.182	13.3942
622.000000	73.195	13.8086
630.000000	73.211	14.2804
640.000000	73.233	14.8660
650.000000	73.255	15.4502
660.000000	73.278	16.0319
670.000000	73.301	16.6100
680.000000	73.325	17.1870
690.000000	73.349	17.7673
700.000000	73.374	18.3502
710.000000	73.401	18.9326
720.000000	73.430	19.5157
730.000000	73.460	20.1006
740.000000	73.491	20.6859
750.000000	73.524	21.2706
762.000000	73.565	21.9703
775.000000	73.613	22.7286
788.000000	73.664	23.4818
800.000000	73.714	24.1709
812.000000	73.767	24.8602
825.000000	73.828	25.5995
838.000000	73.893	26.3317
850.000000	73.956	26.9988
862.000000	74.023	27.6518
875.000000	74.099	28.3469
885.000000	74.160	28.8728
900.000000	74.256	29.6410
912.000000	74.336	30.2364
925.000000	74.426	30.8568
938.000000	74.519	31.4503
950.000000	74.608	31.9761
962.000000	74.699	32.4784
975.000000	74.801	32.9916
988.000000	74.904	33.4720
1000.000000	75.001	33.8875
1015.000000	75.124	34.3662
1030.000000	75.248	34.7977
1044.000000	75.364	35.1602
1060.000000	75.497	35.5283
1075.000000	75.620	35.8298
1090.000000	75.742	36.0876
1106.000000	75.871	36.3152
1120.000000	75.981	36.4789
1138.000000	76.119	36.6440
1150.000000	76.208	36.7282
1172.000000	76.365	36.8360
1180.000000	76.420	36.8610
1206.000000	76.592	36.8933
1220.000000	76.679	36.8865
1241.000000	76.802	36.8580
1250.000000	76.852	36.8407
1265.000000	76.933	36.8071
1280.000000	77.009	36.7722
1315.000000	77.178	36.7055
1320.000000	77.201	36.6971
1340.000000	77.292	36.6584
1360.000000	77.380	36.6043
1380.000000	77.463	36.5370
1400.000000	77.541	36.4656
1430.000000	77.646	36.3759
1450.000000	77.711	36.3376
1475.000000	77.788	36.3224
1500.000000	77.862	36.3421
1525.000000	77.935	36.3930
1550.000000	78.009	36.4668
1575.000000	78.084	36.5572
1600.000000	78.159	36.6590
1625.000000	78.235	36.7735
1650.000000	78.313	36.9042
1675.000000	78.392	37.0464
1700.000000	78.474	37.1970
1725.000000	78.559	37.3537
1750.000000	78.648	37.5114
1775.000000	78.741	37.6622
1800.000000	78.838	37.7970
1825.000000	78.938	37.9052
1850.000000	79.041	37.9786
1875.000000	79.143	38.0206
1900.000000	79.244	38.0414
1925.000000	79.344	38.0484
1950.000000	79.443	38.0466
1975.000000	79.542	38.0372
2000.000000	79.641	38.0189
2030.000000	79.761	37.9834
2060.000000	79.881	37.9322
2090.000000	80.002	37.8655
2120.000000	80.123	37.7867
2140.000000	80.204	37.7297
2180.000000	80.368	37.6166
2200.000000	80.452	37.5652
2240.000000	80.632	37.4679
2270.000000	80.781	37.3688
2300.000000	80.945	37.1898
2330.000000	81.118	36.8698
2360.000000	81.290	36.3799
2400.000000	81.500	35.5067
2430.000000	81.639	34.7511
2470.000000	81.800	33.6873
2500.000000	81.907	32.8719
2540.000000	82.034	31.7682
2580.000000	82.147	30.6480
2620.000000	82.247	29.5081
2650.000000	82.312	28.6400
2690.000000	82.387	27.4708
2720.000000	82.434	26.5894
2760.000000	82.485	25.4146
2800.000000	82.523	24.2449
2850.000000	82.554	22.7958
2900.000000	82.565	21.3652
2950.000000	82.559	19.9606
3000.000000	82.535	18.5889
3040.000000	82.505	17.5176
3070.000000	82.476	16.7313
3110.000000	82.428	15.7091
3150.000000	82.369	14.7231
3200.000000	82.282	13.5502
3250.000000	82.181	12.4607
3300.000000	82.069	11.4642
3350.000000	81.950	10.5566
3400.000000	81.825	9.7230
3450.000000	81.694	8.9508
3500.000000	81.555	8.2339
3550.000000	81.408	7.5740
3600.000000	81.248	6.9803
3650.000000	81.072	6.4825
3700.000000	80.880	6.1292
3750.000000	80.675	5.9829
3820.000000	80.385	6.2251
3870.000000	80.199	6.7127
3950.000000	79.970	7.8118
4000.000000	79.870	8.5485
4060.000000	79.783	9.3787
4120.000000	79.719	10.1154
4180.000000	79.666	10.7651
4250.000000	79.610	11.4479
4310.000000	79.564	12.0004
4370.000000	79.520	12.5469
4440.000000	79.472	13.1903
4500.000000	79.433	13.7516
4550.000000	79.402	14.2307
4620.000000	79.362	14.9280
4680.000000	79.332	15.5608
4750.000000	79.304	16.3467
4820.000000	79.285	17.1781
4870.000000	79.278	17.7986
4940.000000	79.280	18.7084
5000.000000	79.292	19.5297
5080.000000	79.327	20.6914
5150.000000	79.383	21.7630
5220.000000	79.468	22.8602
5300.000000	79.606	24.0996
5380.000000	79.791	25.2704
5450.000000	79.998	26.1845
5520.000000	80.250	26.9199
5600.000000	80.596	27.4022
5700.000000	81.098	27.1452
5800.000000	81.612	25.5253
5900.000000	82.015	22.3704
6000.000000	82.174	18.1589
6080.000000	82.083	14.7667
6150.000000	81.863	12.3008
6220.000000	81.555	10.5742
6300.000000	81.161	9.5819
6400.000000	80.693	9.6112
6500.000000	80.319	10.6296
6600.000000	80.065	12.2203
6700.000000	79.931	14.0977
6800.000000	79.912	16.0836
6900.000000	80.006	18.0453
7000.000000	80.214	19.8496
7100.000000	80.537	21.3278
7200.000000	80.969	22.2594
7300.000000	81.487	22.4222
7400.000000	82.068	21.7177
7500.000000	82.704	19.9091
7620.000000	83.453	15.7524
7750.000000	84.071	8.6458
7880.000000	84.296	-0.5142
8000.000000	84.050	-9.4764
8120.000000	83.383	-17.4805
8250.000000	82.292	-23.8369
8380.000000	80.969	-26.9003
8500.000000	79.777	-26.2540
8620.000000	79.008	-23.5165
8750.000000	78.727	-21.9932
8850.000000	78.542	-22.7380
9000.000000	77.966	-24.2957
9120.000000	77.385	-24.4832
9250.000000	76.797	-23.8456
9380.000000	76.293	-22.8462
9500.000000	75.893	-21.8810
9620.000000	75.535	-21.0134
9750.000000	75.169	-20.2460
9880.000000	74.806	-19.6416
10000.000000	74.460	-19.1799
10150.000000	73.999	-18.6461
10300.000000	73.500	-18.0237
10440.000000	72.999	-17.2178
10600.000000	72.404	-15.8834
10750.000000	71.846	-14.1533
10900.000000	71.316	-11.9691
11060.000000	70.810	-9.2432
11200.000000	70.431	-6.6478
11380.000000	70.043	-3.2346
11500.000000	69.842	-1.0222
11720.000000	69.577	2.6898
11800.000000	69.507	3.8967
12060.000000	69.343	7.2772
12200.000000	69.286	8.7770
12410.000000	69.220	10.6270
12500.000000	69.193	11.2931
12650.000000	69.142	12.3074
12800.000000	69.088	13.2861
13150.000000	68.995	15.5794
13200.000000	68.987	15.9019
13400.000000	68.975	17.1683
13600.000000	68.991	18.3970
13800.000000	69.040	19.5905
14000.000000	69.135	20.7381
14300.000000	69.398	22.1488
14500.000000	69.657	22.4584
14750.000000	69.996	21.6039
15000.000000	70.226	19.3478
15250.000000	70.250	16.2825
15500.000000	70.066	13.3323
15750.000000	69.768	11.1780
16000.000000	69.502	9.8964
16250.000000	69.405	8.9397
16500.000000	69.558	7.3170
16750.000000	69.948	3.7559
17000.000000	70.416	-3.0263
17250.000000	70.666	-13.4158
17500.000000	70.428	-25.9178
17750.000000	69.645	-37.8986
18000.000000	68.464	-47.4099
18250.000000	67.105	-53.9512
18500.000000	65.741	-57.9275
18750.000000	64.460	-59.9050
19000.000000	63.296	-60.4603
19250.000000	62.238	-60.1616
19500.000000	61.240	-59.5393
19750.000000	60.312	-59.0302
