* Measurement data measured by REW V5.20.13
* Source: EXCL: Headset (KM-HIFI-384KHZ), MICROPHONE (Master Volume), 0, volume: 1.000
* Format: 256k Log Swept Sine, 1 sweep at -20.0 dBFS with no timing reference
* Dated: Nov 11, 2023 10:05:55 PM
* REW Settings:
*  C-weighting compensation: Off
*  Target level: 75.0 dB
* Note: ; 
* Measurement: Cate RE-2 R
* Smoothing: 1/24 octave
* Frequency Step: 1/48 octave
* Start Frequency: 20.000 Hz
*
* Freq(Hz)	SPL(dB)	Phase(degrees)
20.000000	93.924	-112.2213
20.299999	95.481	-113.4182
20.600000	96.456	-120.6504
20.900000	96.777	-130.6915
21.200001	96.479	-140.9351
21.400000	95.945	-146.9482
21.799999	94.084	-154.0070
22.000000	92.843	-153.4801
22.400000	90.238	-142.2543
22.700001	89.334	-128.2312
23.000000	90.110	-116.0334
23.299999	91.407	-109.5755
23.600000	92.607	-108.6187
24.000000	93.664	-112.7808
24.299999	94.089	-117.2969
24.700001	94.280	-123.4114
25.000000	94.215	-127.5295
25.400000	93.938	-131.9655
25.799999	93.555	-134.9702
26.200001	93.176	-136.6735
26.500000	92.936	-137.3447
26.900000	92.684	-137.7142
27.200001	92.533	-137.6536
27.600000	92.378	-137.0158
28.000000	92.323	-135.6647
28.500000	92.493	-133.4625
29.000000	92.917	-131.8546
29.500000	93.447	-131.5999
30.000000	93.944	-132.6215
30.400000	94.278	-134.0972
30.700001	94.484	-135.5044
31.100000	94.685	-137.6904
31.500000	94.789	-140.0587
32.000000	94.781	-142.8411
32.500000	94.675	-144.9594
33.000000	94.568	-146.3369
33.500000	94.524	-147.3608
34.000000	94.532	-148.4832
34.500000	94.538	-149.8021
35.000000	94.512	-151.1041
35.500000	94.460	-152.1461
36.000000	94.405	-152.8456
36.500000	94.361	-153.2219
37.000000	94.340	-153.3130
37.500000	94.353	-153.1994
38.200001	94.431	-153.0294
38.700001	94.496	-153.0800
39.500000	94.547	-153.1848
40.000000	94.566	-153.0037
40.599998	94.623	-152.6235
41.200001	94.712	-152.4325
41.799999	94.780	-152.5106
42.500000	94.800	-152.5675
43.099998	94.802	-152.3828
43.700001	94.815	-152.1644
44.400002	94.814	-152.0925
45.000000	94.768	-152.0970
45.500000	94.703	-152.0247
46.200001	94.601	-151.8083
46.799999	94.520	-151.6707
47.500000	94.433	-151.6835
48.200001	94.364	-151.8977
48.700001	94.337	-152.2340
49.400002	94.322	-153.0527
50.000000	94.311	-153.9788
50.799999	94.303	-155.1667
51.500000	94.330	-155.9979
52.200001	94.393	-156.6605
53.000000	94.487	-157.1655
53.799999	94.596	-157.4113
54.500000	94.681	-157.5615
55.200001	94.725	-157.6343
56.000000	94.734	-157.4987
57.000000	94.726	-157.2930
58.000000	94.686	-157.3050
59.000000	94.664	-157.5392
60.000000	94.649	-158.3425
60.799999	94.608	-158.9824
61.500000	94.595	-159.3040
62.200001	94.620	-159.6169
63.000000	94.650	-160.0645
64.000000	94.661	-160.4114
65.000000	94.680	-160.5751
66.000000	94.690	-160.8801
67.000000	94.672	-161.2437
68.000000	94.658	-161.5894
69.000000	94.662	-161.9927
70.000000	94.671	-162.3641
71.000000	94.690	-162.5562
72.000000	94.718	-162.6048
73.000000	94.742	-162.6287
74.000000	94.741	-162.7127
75.000000	94.713	-162.8412
76.199997	94.672	-163.1042
77.500000	94.638	-163.6418
78.800003	94.623	-164.1765
80.000000	94.645	-164.4976
81.199997	94.695	-164.6431
82.500000	94.747	-164.8062
83.800003	94.731	-164.9533
85.000000	94.685	-164.8647
86.199997	94.663	-164.8384
87.500000	94.657	-165.1104
88.500000	94.655	-165.4674
90.000000	94.641	-165.9307
91.199997	94.639	-166.0621
92.500000	94.649	-166.0559
93.800003	94.674	-166.0044
95.000000	94.702	-166.0964
96.199997	94.717	-166.4193
97.500000	94.691	-166.8821
98.800003	94.631	-167.1675
100.000000	94.582	-167.0959
101.500000	94.594	-166.8879
103.000000	94.649	-166.9850
104.400002	94.686	-167.3658
106.000000	94.689	-167.7628
107.500000	94.683	-167.9958
109.000000	94.678	-168.1389
110.599998	94.660	-168.3033
112.000000	94.640	-168.3824
113.800003	94.630	-168.5667
115.000000	94.627	-168.7748
117.199997	94.625	-169.1438
118.000000	94.627	-169.2517
120.599998	94.647	-169.3751
122.000000	94.667	-169.4516
124.099998	94.651	-169.7106
125.000000	94.624	-169.7534
126.500000	94.589	-169.6694
128.000000	94.589	-169.6217
131.500000	94.581	-170.0566
132.000000	94.575	-170.1030
134.000000	94.552	-170.2436
136.000000	94.531	-170.3287
138.000000	94.517	-170.3728
140.000000	94.515	-170.4913
143.000000	94.467	-170.8456
145.000000	94.417	-170.8942
147.500000	94.384	-170.9260
150.000000	94.352	-171.0198
152.500000	94.307	-171.0307
155.000000	94.257	-171.0117
157.500000	94.206	-171.0900
160.000000	94.119	-171.1801
162.500000	94.004	-170.7633
165.000000	93.933	-169.8605
167.500000	93.918	-168.7723
170.000000	93.974	-167.7575
172.500000	94.065	-167.1201
175.000000	94.155	-166.7126
177.500000	94.259	-166.3856
180.000000	94.383	-166.3010
182.500000	94.497	-166.5657
185.000000	94.579	-167.0287
187.500000	94.626	-167.5276
190.000000	94.648	-168.0134
192.500000	94.660	-168.4876
195.000000	94.668	-168.8743
197.500000	94.671	-169.1053
200.000000	94.663	-169.1914
203.000000	94.651	-169.1962
206.000000	94.643	-169.2230
209.000000	94.630	-169.3219
212.000000	94.617	-169.4142
214.000000	94.613	-169.4648
218.000000	94.587	-169.5554
220.000000	94.569	-169.6007
224.000000	94.559	-169.7444
227.000000	94.559	-169.7696
230.000000	94.552	-169.7171
233.000000	94.539	-169.7266
236.000000	94.527	-169.7446
240.000000	94.515	-169.6937
243.000000	94.503	-169.6837
247.000000	94.489	-169.6903
250.000000	94.483	-169.6525
254.000000	94.471	-169.5665
258.000000	94.457	-169.5092
262.000000	94.446	-169.5115
265.000000	94.435	-169.4717
269.000000	94.427	-169.3542
272.000000	94.424	-169.2712
276.000000	94.421	-169.2071
280.000000	94.412	-169.1609
285.000000	94.392	-169.0270
290.000000	94.382	-168.8734
295.000000	94.376	-168.7714
300.000000	94.363	-168.6600
304.000000	94.355	-168.5253
307.000000	94.351	-168.4415
311.000000	94.346	-168.3561
315.000000	94.341	-168.2567
320.000000	94.335	-168.1052
325.000000	94.330	-167.9420
330.000000	94.324	-167.7694
335.000000	94.317	-167.6240
340.000000	94.314	-167.4814
345.000000	94.309	-167.3259
350.000000	94.304	-167.1760
355.000000	94.298	-167.0222
360.000000	94.294	-166.8446
365.000000	94.289	-166.6589
370.000000	94.284	-166.4890
375.000000	94.280	-166.3303
382.000000	94.277	-166.0894
387.000000	94.275	-165.9043
395.000000	94.270	-165.5980
400.000000	94.267	-165.4128
406.000000	94.264	-165.1948
412.000000	94.263	-164.9758
418.000000	94.263	-164.7487
425.000000	94.262	-164.4659
431.000000	94.262	-164.2276
437.000000	94.262	-163.9943
444.000000	94.262	-163.7130
450.000000	94.262	-163.4621
455.000000	94.261	-163.2577
462.000000	94.263	-162.9771
468.000000	94.266	-162.7276
475.000000	94.269	-162.4369
482.000000	94.271	-162.1400
487.000000	94.273	-161.9274
494.000000	94.277	-161.6323
500.000000	94.280	-161.3734
508.000000	94.286	-161.0187
515.000000	94.292	-160.7081
522.000000	94.299	-160.3981
530.000000	94.308	-160.0401
538.000000	94.317	-159.6794
545.000000	94.324	-159.3621
552.000000	94.332	-159.0432
560.000000	94.342	-158.6716
570.000000	94.356	-158.2018
580.000000	94.371	-157.7346
590.000000	94.387	-157.2639
600.000000	94.404	-156.7829
608.000000	94.419	-156.3914
615.000000	94.432	-156.0446
622.000000	94.446	-155.6968
630.000000	94.463	-155.2981
640.000000	94.486	-154.7984
650.000000	94.510	-154.2967
660.000000	94.535	-153.7866
670.000000	94.562	-153.2701
680.000000	94.591	-152.7485
690.000000	94.621	-152.2212
700.000000	94.653	-151.6920
710.000000	94.688	-151.1631
720.000000	94.724	-150.6320
730.000000	94.763	-150.0951
740.000000	94.803	-149.5552
750.000000	94.846	-149.0137
762.000000	94.900	-148.3640
775.000000	94.963	-147.6548
788.000000	95.030	-146.9462
800.000000	95.095	-146.2979
812.000000	95.165	-145.6536
825.000000	95.244	-144.9581
838.000000	95.328	-144.2684
850.000000	95.411	-143.6412
862.000000	95.497	-143.0275
875.000000	95.596	-142.3823
885.000000	95.675	-141.8962
900.000000	95.798	-141.1848
912.000000	95.901	-140.6337
925.000000	96.016	-140.0620
938.000000	96.136	-139.5215
950.000000	96.250	-139.0517
962.000000	96.369	-138.6125
975.000000	96.500	-138.1740
988.000000	96.637	-137.7764
1000.000000	96.766	-137.4510
1015.000000	96.931	-137.1151
1030.000000	97.101	-136.8978
1044.000000	97.256	-136.8669
1060.000000	97.395	-137.0300
1075.000000	97.467	-137.0507
1090.000000	97.542	-136.6053
1106.000000	97.689	-135.9834
1120.000000	97.851	-135.6466
1138.000000	98.060	-135.4810
1150.000000	98.192	-135.4692
1172.000000	98.422	-135.5692
1180.000000	98.501	-135.6371
1206.000000	98.745	-135.9589
1220.000000	98.867	-136.1859
1241.000000	99.035	-136.5773
1250.000000	99.102	-136.7563
1265.000000	99.204	-137.0608
1280.000000	99.298	-137.3655
1315.000000	99.487	-137.9886
1320.000000	99.512	-138.0660
1340.000000	99.611	-138.3563
1360.000000	99.702	-138.6018
1380.000000	99.789	-138.7501
1400.000000	99.876	-138.8363
1430.000000	100.010	-138.9739
1450.000000	100.104	-139.0408
1475.000000	100.224	-139.0873
1500.000000	100.345	-139.1471
1525.000000	100.470	-139.2065
1550.000000	100.598	-139.2658
1575.000000	100.727	-139.3248
1600.000000	100.860	-139.3845
1625.000000	100.998	-139.4536
1650.000000	101.142	-139.5464
1675.000000	101.292	-139.6842
1700.000000	101.444	-139.8827
1725.000000	101.595	-140.1411
1750.000000	101.743	-140.4482
1775.000000	101.886	-140.7896
1800.000000	102.026	-141.1546
1825.000000	102.163	-141.5427
1850.000000	102.299	-141.9528
1875.000000	102.433	-142.3834
1900.000000	102.565	-142.8364
1925.000000	102.694	-143.3115
1950.000000	102.821	-143.8091
1975.000000	102.946	-144.3311
2000.000000	103.069	-144.8794
2030.000000	103.212	-145.5709
2060.000000	103.351	-146.2968
2090.000000	103.485	-147.0558
2120.000000	103.613	-147.8469
2140.000000	103.696	-148.3912
2180.000000	103.852	-149.5179
2200.000000	103.927	-150.0989
2240.000000	104.066	-151.2935
2270.000000	104.163	-152.2133
2300.000000	104.252	-153.1497
2330.000000	104.335	-154.0997
2360.000000	104.410	-155.0604
2400.000000	104.499	-156.3516
2430.000000	104.557	-157.3226
2470.000000	104.622	-158.6154
2500.000000	104.662	-159.5805
2540.000000	104.705	-160.8567
2580.000000	104.736	-162.1132
2620.000000	104.755	-163.3414
2650.000000	104.762	-164.2389
2690.000000	104.762	-165.3988
2720.000000	104.755	-166.2384
2760.000000	104.738	-167.3135
2800.000000	104.714	-168.3368
2850.000000	104.678	-169.5461
2900.000000	104.635	-170.6774
2950.000000	104.586	-171.7299
3000.000000	104.534	-172.7094
3040.000000	104.490	-173.4457
3070.000000	104.457	-173.9731
3110.000000	104.414	-174.6453
3150.000000	104.371	-175.2838
3200.000000	104.318	-176.0419
3250.000000	104.265	-176.7613
3300.000000	104.213	-177.4451
3350.000000	104.164	-178.1023
3400.000000	104.117	-178.7466
3450.000000	104.073	-179.3785
3500.000000	104.030	179.9929
3550.000000	103.990	179.3613
3600.000000	103.950	178.7263
3650.000000	103.911	178.0791
3700.000000	103.872	177.4156
3750.000000	103.832	176.7350
3820.000000	103.773	175.7441
3870.000000	103.729	175.0060
3950.000000	103.650	173.7728
4000.000000	103.595	172.9702
4060.000000	103.519	171.9767
4120.000000	103.433	170.9541
4180.000000	103.334	169.9095
4250.000000	103.203	168.6764
4310.000000	103.075	167.6188
4370.000000	102.931	166.5757
4440.000000	102.739	165.4060
4500.000000	102.554	164.4766
4550.000000	102.388	163.7913
4620.000000	102.153	163.0019
4680.000000	101.964	162.3684
4750.000000	101.732	161.4980
4820.000000	101.452	160.7213
4870.000000	101.236	160.3729
4940.000000	100.942	160.1038
5000.000000	100.700	159.9702
5080.000000	100.380	159.8956
5150.000000	100.099	159.9533
5220.000000	99.819	160.1398
5300.000000	99.501	160.5240
5380.000000	99.190	161.0887
5450.000000	98.931	161.7078
5520.000000	98.686	162.4431
5600.000000	98.423	163.4167
5700.000000	98.122	164.8124
5800.000000	97.853	166.3819
5900.000000	97.617	168.1011
6000.000000	97.418	169.9424
6080.000000	97.287	171.4871
6150.000000	97.194	172.8794
6220.000000	97.121	174.3010
6300.000000	97.062	175.9523
6400.000000	97.030	178.0306
6500.000000	97.044	-179.8982
6600.000000	97.107	-177.8646
6700.000000	97.221	-175.9031
6800.000000	97.389	-174.0533
6900.000000	97.613	-172.3600
7000.000000	97.894	-170.8751
7100.000000	98.235	-169.6650
7200.000000	98.639	-168.8253
7300.000000	99.105	-168.4844
7400.000000	99.628	-168.7960
7500.000000	100.187	-169.9283
7620.000000	100.859	-172.5891
7750.000000	101.503	-177.3511
7880.000000	101.937	175.9274
8000.000000	102.035	168.4731
8120.000000	101.778	160.7513
8250.000000	101.120	153.2669
8380.000000	100.169	147.5884
8500.000000	99.146	144.2092
8620.000000	98.077	142.4959
8750.000000	96.939	142.1985
8850.000000	96.111	142.8395
9000.000000	94.968	144.8922
9120.000000	94.145	147.2573
9250.000000	93.340	150.3738
9380.000000	92.619	153.9380
9500.000000	92.022	157.5441
9620.000000	91.488	161.3981
9750.000000	90.973	165.8114
9880.000000	90.526	170.4393
10000.000000	90.173	174.8978
10150.000000	89.812	-179.2419
10300.000000	89.549	-173.0429
10440.000000	89.410	-167.1833
10600.000000	89.358	-160.4511
10750.000000	89.426	-153.8288
10900.000000	89.676	-146.9788
11060.000000	90.206	-139.8347
11200.000000	90.901	-134.2311
11380.000000	92.034	-128.7235
11500.000000	92.868	-126.3583
11720.000000	94.435	-124.4571
11800.000000	95.016	-124.3926
12060.000000	97.064	-126.4852
12200.000000	98.288	-129.7993
12410.000000	100.050	-139.7849
12500.000000	100.631	-146.3499
12650.000000	101.139	-159.8382
12800.000000	100.935	-174.2740
13150.000000	98.255	163.0231
13200.000000	97.760	161.4650
13400.000000	95.840	158.3356
13600.000000	94.212	158.4943
13800.000000	92.946	160.3932
14000.000000	92.011	163.1575
14300.000000	91.127	167.8310
14500.000000	90.831	170.6917
14750.000000	90.710	173.2482
15000.000000	90.748	174.0410
15250.000000	90.772	172.6640
15500.000000	90.580	169.3519
15750.000000	90.010	165.2490
16000.000000	89.022	162.0094
16250.000000	87.713	160.9427
16500.000000	86.255	162.4896
16750.000000	84.826	166.3466
17000.000000	83.555	171.7935
17250.000000	82.519	178.0089
17500.000000	81.747	-175.8424
17750.000000	81.210	-170.6060
18000.000000	80.827	-166.8304
18250.000000	80.536	-164.8272
18500.000000	80.288	-165.1663
18750.000000	79.934	-168.4246
19000.000000	79.263	-174.0547
19250.000000	78.140	179.7383
19500.000000	76.588	175.0054
19750.000000	74.852	172.7319
