* Measurement data measured by REW V5.20.13
* Source: EXCL: Headset (KM-HIFI-384KHZ), MICROPHONE (Master Volume), 0, volume: 1.000
* Format: 256k Log Swept Sine, 1 sweep at -20.0 dBFS with no timing reference
* Dated: Nov 11, 2023 10:06:35 PM
* REW Settings:
*  C-weighting compensation: Off
*  Target level: 75.0 dB
* Note: ; 
* Measurement: Cate RE-2 L
* Smoothing: 1/24 octave
* Frequency Step: 1/48 octave
* Start Frequency: 20.000 Hz
*
* Freq(Hz)	SPL(dB)	Phase(degrees)
20.000000	90.474	-122.3269
20.299999	90.560	-123.1855
20.600000	90.618	-124.0431
20.900000	90.651	-124.8009
21.200001	90.672	-125.3936
21.400000	90.688	-125.6999
21.799999	90.737	-126.1701
22.000000	90.773	-126.3804
22.400000	90.862	-126.8541
22.700001	90.935	-127.3004
23.000000	91.003	-127.8259
23.299999	91.060	-128.3930
23.600000	91.106	-128.9604
24.000000	91.153	-129.6594
24.299999	91.184	-130.1183
24.700001	91.227	-130.6556
25.000000	91.265	-131.0365
25.400000	91.322	-131.5687
25.799999	91.377	-132.1674
26.200001	91.422	-132.8178
26.500000	91.445	-133.3005
26.900000	91.465	-133.8840
27.200001	91.478	-134.2593
27.600000	91.501	-134.6977
28.000000	91.534	-135.1326
28.500000	91.580	-135.7566
29.000000	91.614	-136.4452
29.500000	91.633	-137.0827
30.000000	91.653	-137.6087
30.400000	91.678	-137.9923
30.700001	91.703	-138.2923
31.100000	91.737	-138.7255
31.500000	91.769	-139.1787
32.000000	91.805	-139.7263
32.500000	91.843	-140.2400
33.000000	91.883	-140.7523
33.500000	91.919	-141.2731
34.000000	91.948	-141.7605
34.500000	91.972	-142.1738
35.000000	91.999	-142.5206
35.500000	92.031	-142.8386
36.000000	92.064	-143.1565
36.500000	92.096	-143.4852
37.000000	92.123	-143.8210
37.500000	92.142	-144.1380
38.200001	92.163	-144.4832
38.700001	92.188	-144.6732
39.500000	92.251	-145.0933
40.000000	92.288	-145.5009
40.599998	92.312	-146.0626
41.200001	92.317	-146.5630
41.799999	92.320	-146.9482
42.500000	92.337	-147.3287
43.099998	92.359	-147.6885
43.700001	92.378	-148.0736
44.400002	92.394	-148.4722
45.000000	92.413	-148.7813
45.500000	92.430	-149.0739
46.200001	92.439	-149.4959
46.799999	92.438	-149.7373
47.500000	92.462	-149.9340
48.200001	92.500	-150.3036
48.700001	92.511	-150.6473
49.400002	92.507	-150.9774
50.000000	92.521	-151.1142
50.799999	92.565	-151.4252
51.500000	92.584	-151.7874
52.200001	92.595	-151.9889
53.000000	92.632	-152.1723
53.799999	92.661	-152.4955
54.500000	92.665	-152.7189
55.200001	92.674	-152.8611
56.000000	92.691	-153.1103
57.000000	92.685	-153.6355
58.000000	92.611	-154.0440
59.000000	92.561	-153.7397
60.000000	92.660	-153.5901
60.799999	92.738	-154.1274
61.500000	92.758	-154.6112
62.200001	92.778	-154.9100
63.000000	92.818	-155.2740
64.000000	92.841	-155.7883
65.000000	92.844	-156.0528
66.000000	92.864	-156.1627
67.000000	92.896	-156.3316
68.000000	92.918	-156.6115
69.000000	92.923	-156.8566
70.000000	92.933	-157.0297
71.000000	92.953	-157.2496
72.000000	92.964	-157.5186
73.000000	92.967	-157.7097
74.000000	92.979	-157.8231
75.000000	93.002	-157.9722
76.199997	93.021	-158.2327
77.500000	93.027	-158.4766
78.800003	93.036	-158.6324
80.000000	93.055	-158.7955
81.199997	93.072	-159.0202
82.500000	93.086	-159.2773
83.800003	93.095	-159.5369
85.000000	93.104	-159.7290
86.199997	93.121	-159.9248
87.500000	93.138	-160.1478
88.500000	93.149	-160.3187
90.000000	93.150	-160.5472
91.199997	93.147	-160.6425
92.500000	93.144	-160.7478
93.800003	93.142	-160.8064
95.000000	93.153	-160.8487
96.199997	93.175	-160.9090
97.500000	93.212	-161.0689
98.800003	93.235	-161.3475
100.000000	93.243	-161.5947
101.500000	93.239	-161.9881
103.000000	93.212	-162.3028
104.400002	93.199	-162.4917
106.000000	93.205	-162.6544
107.500000	93.230	-162.8082
109.000000	93.245	-163.0068
110.599998	93.249	-163.1264
112.000000	93.255	-163.3028
113.800003	93.239	-163.5222
115.000000	93.240	-163.5820
117.199997	93.236	-163.6993
118.000000	93.229	-163.6427
120.599998	93.216	-163.5364
122.000000	93.175	-163.6282
124.099998	93.108	-163.6755
125.000000	93.092	-163.7271
126.500000	93.069	-163.8788
128.000000	93.032	-163.9425
131.500000	92.967	-163.2199
132.000000	92.970	-163.0983
134.000000	92.985	-162.8086
136.000000	92.981	-162.5822
138.000000	93.002	-162.1393
140.000000	93.071	-161.8385
143.000000	93.134	-161.9948
145.000000	93.130	-162.0148
147.500000	93.143	-161.7529
150.000000	93.193	-161.4124
152.500000	93.270	-161.1798
155.000000	93.354	-161.1624
157.500000	93.423	-161.2762
160.000000	93.488	-161.4287
162.500000	93.539	-161.6919
165.000000	93.575	-161.9769
167.500000	93.598	-162.2975
170.000000	93.605	-162.5564
172.500000	93.617	-162.7061
175.000000	93.638	-162.8035
177.500000	93.660	-162.9346
180.000000	93.668	-163.1041
182.500000	93.672	-163.2385
185.000000	93.678	-163.3472
187.500000	93.683	-163.4644
190.000000	93.681	-163.5975
192.500000	93.678	-163.7277
195.000000	93.682	-163.8460
197.500000	93.692	-163.9357
200.000000	93.708	-163.9386
203.000000	93.718	-163.8168
206.000000	93.696	-163.7385
209.000000	93.663	-163.8996
212.000000	93.665	-164.1982
214.000000	93.688	-164.3202
218.000000	93.718	-164.2268
220.000000	93.710	-164.1286
224.000000	93.678	-164.1874
227.000000	93.678	-164.3292
230.000000	93.692	-164.2888
233.000000	93.689	-164.1475
236.000000	93.674	-164.1230
240.000000	93.669	-164.1450
243.000000	93.667	-164.0570
247.000000	93.660	-163.9973
250.000000	93.668	-163.9479
254.000000	93.681	-163.7158
258.000000	93.691	-163.5090
262.000000	93.716	-163.3744
265.000000	93.735	-163.2818
269.000000	93.759	-163.2385
272.000000	93.774	-163.2299
276.000000	93.789	-163.2568
280.000000	93.799	-163.3364
285.000000	93.809	-163.3075
290.000000	93.818	-163.2617
295.000000	93.822	-163.2452
300.000000	93.821	-163.1832
304.000000	93.823	-163.1261
307.000000	93.828	-163.0967
311.000000	93.833	-163.0615
315.000000	93.839	-163.0183
320.000000	93.842	-162.9445
325.000000	93.843	-162.8554
330.000000	93.843	-162.7819
335.000000	93.842	-162.6871
340.000000	93.843	-162.5674
345.000000	93.848	-162.4461
350.000000	93.853	-162.3535
355.000000	93.859	-162.2476
360.000000	93.860	-162.1149
365.000000	93.857	-161.9834
370.000000	93.856	-161.8614
375.000000	93.860	-161.7473
382.000000	93.863	-161.5848
387.000000	93.865	-161.4456
395.000000	93.868	-161.2103
400.000000	93.871	-161.0688
406.000000	93.877	-160.8951
412.000000	93.883	-160.7129
418.000000	93.888	-160.5308
425.000000	93.893	-160.3214
431.000000	93.897	-160.1321
437.000000	93.902	-159.9319
444.000000	93.908	-159.6952
450.000000	93.911	-159.4865
455.000000	93.913	-159.3160
462.000000	93.921	-159.0774
468.000000	93.929	-158.8686
475.000000	93.938	-158.6207
482.000000	93.946	-158.3694
487.000000	93.951	-158.1894
494.000000	93.960	-157.9303
500.000000	93.967	-157.7029
508.000000	93.978	-157.3941
515.000000	93.986	-157.1136
522.000000	93.994	-156.8435
530.000000	94.007	-156.5329
538.000000	94.022	-156.2106
545.000000	94.035	-155.9213
552.000000	94.047	-155.6257
560.000000	94.057	-155.2914
570.000000	94.072	-154.8661
580.000000	94.089	-154.4358
590.000000	94.109	-153.9960
600.000000	94.130	-153.5480
608.000000	94.148	-153.1794
615.000000	94.164	-152.8585
622.000000	94.180	-152.5367
630.000000	94.200	-152.1593
640.000000	94.225	-151.6831
650.000000	94.253	-151.2073
660.000000	94.286	-150.7230
670.000000	94.324	-150.2329
680.000000	94.357	-149.7373
690.000000	94.386	-149.2352
700.000000	94.417	-148.7253
710.000000	94.454	-148.2116
720.000000	94.493	-147.6952
730.000000	94.535	-147.1762
740.000000	94.580	-146.6543
750.000000	94.626	-146.1337
762.000000	94.685	-145.4922
775.000000	94.753	-144.8094
788.000000	94.823	-144.1124
800.000000	94.895	-143.4563
812.000000	94.972	-142.8309
825.000000	95.057	-142.1532
838.000000	95.151	-141.4705
850.000000	95.242	-140.8685
862.000000	95.334	-140.2702
875.000000	95.441	-139.6393
885.000000	95.528	-139.1663
900.000000	95.662	-138.4772
912.000000	95.772	-137.9641
925.000000	95.904	-137.4310
938.000000	96.060	-136.8473
950.000000	96.230	-136.2548
962.000000	96.401	-135.8352
975.000000	96.522	-135.6941
988.000000	96.634	-135.4467
1000.000000	96.774	-135.1841
1015.000000	96.975	-135.0832
1030.000000	97.182	-135.3293
1044.000000	97.342	-135.9836
1060.000000	97.398	-137.0462
1075.000000	97.306	-137.3578
1090.000000	97.234	-136.3145
1106.000000	97.350	-134.7192
1120.000000	97.551	-133.8368
1138.000000	97.823	-133.3841
1150.000000	97.993	-133.3353
1172.000000	98.272	-133.5317
1180.000000	98.365	-133.6575
1206.000000	98.639	-134.1568
1220.000000	98.760	-134.4538
1241.000000	98.913	-134.9817
1250.000000	98.972	-135.2269
1265.000000	99.064	-135.5966
1280.000000	99.147	-135.8945
1315.000000	99.322	-136.3209
1320.000000	99.345	-136.3605
1340.000000	99.442	-136.4978
1360.000000	99.546	-136.6096
1380.000000	99.650	-136.6908
1400.000000	99.755	-136.7465
1430.000000	99.917	-136.8403
1450.000000	100.030	-136.9054
1475.000000	100.172	-137.0033
1500.000000	100.316	-137.1284
1525.000000	100.460	-137.2684
1550.000000	100.606	-137.4226
1575.000000	100.754	-137.5984
1600.000000	100.900	-137.7915
1625.000000	101.047	-138.0020
1650.000000	101.193	-138.2285
1675.000000	101.339	-138.4697
1700.000000	101.487	-138.7229
1725.000000	101.637	-138.9906
1750.000000	101.789	-139.2850
1775.000000	101.945	-139.6168
1800.000000	102.103	-139.9977
1825.000000	102.259	-140.4382
1850.000000	102.413	-140.9428
1875.000000	102.565	-141.4985
1900.000000	102.711	-142.0892
1925.000000	102.852	-142.7150
1950.000000	102.988	-143.3714
1975.000000	103.119	-144.0526
2000.000000	103.247	-144.7604
2030.000000	103.394	-145.6442
2060.000000	103.534	-146.5641
2090.000000	103.666	-147.5185
2120.000000	103.792	-148.5018
2140.000000	103.870	-149.1726
2180.000000	104.016	-150.5531
2200.000000	104.085	-151.2601
2240.000000	104.209	-152.6981
2270.000000	104.290	-153.7914
2300.000000	104.363	-154.8929
2330.000000	104.426	-155.9987
2360.000000	104.480	-157.1039
2400.000000	104.539	-158.5701
2430.000000	104.573	-159.6556
2470.000000	104.605	-161.0770
2500.000000	104.619	-162.1198
2540.000000	104.627	-163.4713
2580.000000	104.623	-164.7725
2620.000000	104.608	-166.0202
2650.000000	104.591	-166.9209
2690.000000	104.561	-168.0721
2720.000000	104.533	-168.8983
2760.000000	104.490	-169.9497
2800.000000	104.442	-170.9425
2850.000000	104.374	-172.1005
2900.000000	104.300	-173.1659
2950.000000	104.222	-174.1416
3000.000000	104.142	-175.0290
3040.000000	104.078	-175.6805
3070.000000	104.031	-176.1365
3110.000000	103.968	-176.7043
3150.000000	103.907	-177.2303
3200.000000	103.834	-177.8342
3250.000000	103.765	-178.3912
3300.000000	103.702	-178.9095
3350.000000	103.644	-179.4005
3400.000000	103.591	-179.8735
3450.000000	103.542	179.6626
3500.000000	103.498	179.2003
3550.000000	103.458	178.7333
3600.000000	103.422	178.2539
3650.000000	103.390	177.7572
3700.000000	103.360	177.2353
3750.000000	103.332	176.6843
3820.000000	103.294	175.8579
3870.000000	103.265	175.2207
3950.000000	103.215	174.1143
4000.000000	103.178	173.3681
4060.000000	103.128	172.4178
4120.000000	103.067	171.4113
4180.000000	102.994	170.3566
4250.000000	102.891	169.0754
4310.000000	102.785	167.9478
4370.000000	102.661	166.8071
4440.000000	102.493	165.4802
4500.000000	102.326	164.3657
4550.000000	102.172	163.4698
4620.000000	101.929	162.3074
4680.000000	101.698	161.4555
4750.000000	101.416	160.6886
4820.000000	101.137	160.0919
4870.000000	100.935	159.7406
4940.000000	100.653	159.3730
5000.000000	100.414	159.1220
5080.000000	100.091	158.8596
5150.000000	99.798	158.7582
5220.000000	99.500	158.8163
5300.000000	99.161	159.0863
5380.000000	98.827	159.5606
5450.000000	98.541	160.1384
5520.000000	98.264	160.8567
5600.000000	97.967	161.8204
5700.000000	97.627	163.2324
5800.000000	97.321	164.8477
5900.000000	97.049	166.6352
6000.000000	96.815	168.5670
6080.000000	96.655	170.1993
6150.000000	96.537	171.6797
6220.000000	96.438	173.2003
6300.000000	96.352	174.9754
6400.000000	96.284	177.2316
6500.000000	96.262	179.5073
6600.000000	96.288	-178.2241
6700.000000	96.364	-175.9912
6800.000000	96.494	-173.8276
6900.000000	96.680	-171.7689
7000.000000	96.925	-169.8587
7100.000000	97.234	-168.1543
7200.000000	97.611	-166.7368
7300.000000	98.056	-165.7150
7400.000000	98.567	-165.2135
7500.000000	99.138	-165.3830
7620.000000	99.882	-166.7357
7750.000000	100.688	-169.9870
7880.000000	101.384	-175.4533
8000.000000	101.792	177.5837
8120.000000	101.858	169.4231
8250.000000	101.485	160.5444
8380.000000	100.702	153.0388
8500.000000	99.731	148.0512
8620.000000	98.648	145.0140
8750.000000	97.453	143.6428
8850.000000	96.564	143.6900
9000.000000	95.322	145.1234
9120.000000	94.425	147.1654
9250.000000	93.549	150.0556
9380.000000	92.766	153.4926
9500.000000	92.121	157.0495
9620.000000	91.545	160.9081
9750.000000	90.995	165.3762
9880.000000	90.519	170.1085
10000.000000	90.143	174.6982
10150.000000	89.757	-179.2610
10300.000000	89.474	-172.8330
10440.000000	89.335	-166.4770
10600.000000	89.360	-159.0034
10750.000000	89.583	-151.9755
10900.000000	90.038	-145.1839
11060.000000	90.786	-138.8419
11200.000000	91.598	-134.5936
11380.000000	92.721	-131.1414
11500.000000	93.472	-129.8873
11720.000000	94.883	-129.1116
11800.000000	95.434	-129.2860
12060.000000	97.458	-132.5367
12200.000000	98.636	-137.1266
12410.000000	100.116	-149.7789
12500.000000	100.479	-157.3227
12650.000000	100.548	-171.3124
12800.000000	99.923	175.5507
13150.000000	96.815	158.3112
13200.000000	96.321	157.3627
13400.000000	94.483	156.0353
13600.000000	92.972	157.2888
13800.000000	91.807	159.9325
14000.000000	90.948	163.2841
14300.000000	90.163	168.6890
14500.000000	89.935	171.9764
14750.000000	89.912	175.0391
15000.000000	90.070	176.3055
15250.000000	90.246	175.2429
15500.000000	90.226	171.8529
15750.000000	89.814	167.1414
16000.000000	88.936	162.8923
16250.000000	87.675	160.7046
16500.000000	86.210	161.1869
16750.000000	84.722	164.0517
17000.000000	83.337	168.6401
17250.000000	82.120	174.2945
17500.000000	81.106	-179.5522
17750.000000	80.317	-173.4579
18000.000000	79.767	-168.0750
18250.000000	79.448	-164.2582
18500.000000	79.283	-163.0374
18750.000000	79.089	-165.2303
19000.000000	78.607	-170.5686
19250.000000	77.636	-177.2191
19500.000000	76.160	177.2834
19750.000000	74.432	174.3392
