* Measurement data measured by REW V5.20.13
* Source: EXCL: Headset (KM-HIFI-384KHZ), MICROPHONE (Master Volume), 0, volume: 1.000
* Format: 256k Log Swept Sine, 1 sweep at -20.0 dBFS with no timing reference
* Dated: Nov 11, 2023 10:42:49 PM
* REW Settings:
*  C-weighting compensation: Off
*  Target level: 75.0 dB
* Note: ; 
* Measurement: Cate 300ohm Philphone R
* Smoothing: 1/24 octave
* Frequency Step: 1/48 octave
* Start Frequency: 20.000 Hz
*
* Freq(Hz)	SPL(dB)	Phase(degrees)
20.000000	89.834	151.2397
20.299999	90.070	149.7769
20.600000	90.294	148.3242
20.900000	90.507	146.9056
21.200001	90.712	145.5386
21.400000	90.847	144.6560
21.799999	91.115	142.9404
22.000000	91.249	142.0938
22.400000	91.517	140.3904
22.700001	91.714	139.0884
23.000000	91.903	137.7658
23.299999	92.085	136.4382
23.600000	92.258	135.1230
24.000000	92.479	133.4111
24.299999	92.641	132.1623
24.700001	92.856	130.5275
25.000000	93.017	129.3018
25.400000	93.230	127.6387
25.799999	93.435	125.9247
26.200001	93.626	124.1698
26.500000	93.755	122.8506
26.900000	93.910	121.1302
27.200001	94.014	119.9012
27.600000	94.144	118.3755
28.000000	94.271	116.9844
28.500000	94.440	115.3839
29.000000	94.624	113.8358
29.500000	94.817	112.2599
30.000000	95.012	110.6251
30.400000	95.164	109.2718
30.700001	95.275	108.2275
31.100000	95.416	106.7937
31.500000	95.545	105.3224
32.000000	95.685	103.4758
32.500000	95.805	101.6895
33.000000	95.913	100.0018
33.500000	96.020	98.3898
34.000000	96.129	96.8013
34.500000	96.235	95.1989
35.000000	96.336	93.5641
35.500000	96.428	91.8778
36.000000	96.500	90.1313
36.500000	96.544	88.3600
37.000000	96.550	86.6591
37.500000	96.524	85.1382
38.200001	96.454	83.4491
38.700001	96.399	82.5817
39.500000	96.336	81.7374
40.000000	96.330	81.4960
40.599998	96.373	81.3850
41.200001	96.479	81.2820
41.799999	96.635	80.9922
42.500000	96.843	80.2833
43.099998	97.015	79.4001
43.700001	97.170	78.3807
44.400002	97.330	77.1291
45.000000	97.455	76.0462
45.500000	97.553	75.1535
46.200001	97.688	73.9280
46.799999	97.805	72.8747
47.500000	97.944	71.5888
48.200001	98.077	70.2287
48.700001	98.167	69.2197
49.400002	98.286	67.7483
50.000000	98.377	66.4288
50.799999	98.475	64.6437
51.500000	98.546	63.1232
52.200001	98.609	61.6319
53.000000	98.671	59.9228
53.799999	98.714	58.2368
54.500000	98.739	56.8164
55.200001	98.754	55.4615
56.000000	98.760	54.0146
57.000000	98.761	52.3503
58.000000	98.755	50.8647
59.000000	98.766	49.5896
60.000000	98.806	48.2673
60.799999	98.833	47.1071
61.500000	98.847	46.1136
62.200001	98.860	45.1574
63.000000	98.876	44.0612
64.000000	98.886	42.7210
65.000000	98.896	41.4833
66.000000	98.914	40.2407
67.000000	98.923	38.9723
68.000000	98.925	37.7465
69.000000	98.925	36.5235
70.000000	98.915	35.2969
71.000000	98.896	34.0853
72.000000	98.865	32.8892
73.000000	98.818	31.7466
74.000000	98.756	30.7209
75.000000	98.688	29.8771
76.199997	98.623	29.0843
77.500000	98.590	28.3275
78.800003	98.588	27.4666
80.000000	98.586	26.5340
81.199997	98.574	25.5880
82.500000	98.558	24.5855
83.800003	98.537	23.5842
85.000000	98.510	22.6585
86.199997	98.474	21.7555
87.500000	98.426	20.8258
88.500000	98.389	20.1680
90.000000	98.340	19.2362
91.199997	98.305	18.4932
92.500000	98.263	17.6835
93.800003	98.212	16.9236
95.000000	98.161	16.2820
96.199997	98.109	15.6854
97.500000	98.054	15.0696
98.800003	97.997	14.5219
100.000000	97.950	14.1205
101.500000	97.914	13.6920
103.000000	97.894	13.2082
104.400002	97.876	12.7022
106.000000	97.853	12.0787
107.500000	97.827	11.4521
109.000000	97.796	10.8191
110.599998	97.762	10.1768
112.000000	97.733	9.6377
113.800003	97.695	8.9542
115.000000	97.669	8.5051
117.199997	97.621	7.6858
118.000000	97.604	7.3854
120.599998	97.547	6.4050
122.000000	97.514	5.8827
124.099998	97.459	5.0684
125.000000	97.433	4.7053
126.500000	97.386	4.0755
128.000000	97.328	3.4115
131.500000	97.124	1.9685
132.000000	97.086	1.8112
134.000000	96.922	1.4125
136.000000	96.768	1.4256
138.000000	96.660	1.7124
140.000000	96.610	2.0308
143.000000	96.606	2.1523
145.000000	96.610	1.9758
147.500000	96.600	1.6010
150.000000	96.576	1.1506
152.500000	96.551	0.6715
155.000000	96.518	0.2185
157.500000	96.469	-0.1567
160.000000	96.413	-0.5043
162.500000	96.364	-0.9008
165.000000	96.322	-1.3289
167.500000	96.271	-1.7432
170.000000	96.205	-2.1379
172.500000	96.134	-2.4971
175.000000	96.068	-2.7875
177.500000	96.004	-2.9941
180.000000	95.941	-3.1864
182.500000	95.874	-3.4164
185.000000	95.805	-3.5998
187.500000	95.742	-3.7206
190.000000	95.679	-3.8408
192.500000	95.611	-3.9454
195.000000	95.545	-3.9977
197.500000	95.490	-4.0199
200.000000	95.444	-4.0579
203.000000	95.393	-4.1077
206.000000	95.347	-4.0931
209.000000	95.302	-4.0845
212.000000	95.246	-4.1187
214.000000	95.203	-4.1426
218.000000	95.121	-4.2056
220.000000	95.086	-4.2617
224.000000	95.020	-4.3622
227.000000	94.971	-4.3829
230.000000	94.923	-4.3839
233.000000	94.876	-4.3986
236.000000	94.830	-4.4288
240.000000	94.765	-4.4314
243.000000	94.712	-4.3741
247.000000	94.643	-4.2776
250.000000	94.595	-4.2170
254.000000	94.541	-4.1148
258.000000	94.490	-4.0048
262.000000	94.440	-3.9052
265.000000	94.401	-3.8628
269.000000	94.343	-3.8009
272.000000	94.297	-3.7130
276.000000	94.236	-3.5548
280.000000	94.176	-3.3383
285.000000	94.113	-2.9847
290.000000	94.075	-2.6599
295.000000	94.036	-2.3558
300.000000	93.992	-2.0718
304.000000	93.957	-1.8531
307.000000	93.932	-1.6862
311.000000	93.906	-1.4681
315.000000	93.887	-1.2607
320.000000	93.870	-1.0505
325.000000	93.843	-0.8380
330.000000	93.821	-0.6412
335.000000	93.795	-0.5525
340.000000	93.757	-0.3882
345.000000	93.716	-0.1574
350.000000	93.680	0.0919
355.000000	93.651	0.3533
360.000000	93.625	0.5946
365.000000	93.596	0.8377
370.000000	93.571	1.1112
375.000000	93.552	1.3653
382.000000	93.524	1.6620
387.000000	93.503	1.9023
395.000000	93.470	2.3325
400.000000	93.453	2.5944
406.000000	93.438	2.8915
412.000000	93.423	3.1285
418.000000	93.402	3.3671
425.000000	93.378	3.6335
431.000000	93.355	3.8577
437.000000	93.338	4.1090
444.000000	93.324	4.4695
450.000000	93.311	4.7897
455.000000	93.299	5.0026
462.000000	93.277	5.2609
468.000000	93.260	5.5416
475.000000	93.243	5.8435
482.000000	93.240	6.0713
487.000000	93.243	6.2037
494.000000	93.238	6.3048
500.000000	93.227	6.3584
508.000000	93.204	6.4566
515.000000	93.177	6.4745
522.000000	93.148	6.3658
530.000000	93.088	6.0776
538.000000	92.963	5.6866
545.000000	92.783	5.4241
552.000000	92.530	5.5159
560.000000	92.189	6.6991
570.000000	91.918	9.8249
580.000000	91.944	13.0858
590.000000	92.106	15.2810
600.000000	92.264	16.5272
608.000000	92.370	17.1456
615.000000	92.447	17.4327
622.000000	92.496	17.6957
630.000000	92.522	18.1923
640.000000	92.548	18.9919
650.000000	92.575	19.7909
660.000000	92.606	20.5154
670.000000	92.638	21.2539
680.000000	92.651	22.0438
690.000000	92.662	22.9388
700.000000	92.686	23.8766
710.000000	92.712	24.8577
720.000000	92.749	25.9392
730.000000	92.811	27.0490
740.000000	92.882	28.1314
750.000000	92.960	29.1969
762.000000	93.075	30.3585
775.000000	93.217	31.5123
788.000000	93.375	32.6596
800.000000	93.537	33.6375
812.000000	93.712	34.4064
825.000000	93.891	35.0122
838.000000	94.045	35.5692
850.000000	94.179	36.0693
862.000000	94.313	36.6256
875.000000	94.474	37.2021
885.000000	94.598	37.5770
900.000000	94.788	38.0773
912.000000	94.937	38.3883
925.000000	95.094	38.7026
938.000000	95.257	38.9735
950.000000	95.405	39.1177
962.000000	95.540	39.2021
975.000000	95.680	39.3510
988.000000	95.834	39.4612
1000.000000	95.970	39.4308
1015.000000	96.126	39.3568
1030.000000	96.275	39.1563
1044.000000	96.379	38.8945
1060.000000	96.462	38.8155
1075.000000	96.554	39.0081
1090.000000	96.684	39.2105
1106.000000	96.837	39.2258
1120.000000	96.959	39.1231
1138.000000	97.112	38.9870
1150.000000	97.223	38.8085
1172.000000	97.389	38.0386
1180.000000	97.414	37.6883
1206.000000	97.375	37.6131
1220.000000	97.452	38.3028
1241.000000	97.672	38.4567
1250.000000	97.741	38.3005
1265.000000	97.832	38.1263
1280.000000	97.927	37.9735
1315.000000	98.100	37.5904
1320.000000	98.125	37.5695
1340.000000	98.233	37.4593
1360.000000	98.341	37.2906
1380.000000	98.443	37.1473
1400.000000	98.556	36.9795
1430.000000	98.697	36.7339
1450.000000	98.820	36.6257
1475.000000	98.972	36.2731
1500.000000	99.123	35.8568
1525.000000	99.274	35.2968
1550.000000	99.401	34.5465
1575.000000	99.499	33.8595
1600.000000	99.623	33.3894
1625.000000	99.786	32.5741
1650.000000	99.901	31.2245
1675.000000	99.905	29.7666
1700.000000	99.855	28.9794
1725.000000	99.859	28.5204
1750.000000	99.903	27.9910
1775.000000	99.966	27.3038
1800.000000	100.036	26.2986
1825.000000	100.077	24.9874
1850.000000	100.064	23.5256
1875.000000	99.999	22.0858
1900.000000	99.887	20.7947
1925.000000	99.768	19.7431
1950.000000	99.653	18.6606
1975.000000	99.498	17.5118
2000.000000	99.313	16.4934
2030.000000	99.059	15.3606
2060.000000	98.783	14.3660
2090.000000	98.463	13.1051
2120.000000	98.004	12.0253
2140.000000	97.634	11.7110
2180.000000	96.784	12.7368
2200.000000	96.381	14.2776
2240.000000	95.829	18.0562
2270.000000	95.496	20.5789
2300.000000	95.159	23.6942
2330.000000	94.935	27.2831
2360.000000	94.812	30.9583
2400.000000	94.906	35.7836
2430.000000	95.126	37.6310
2470.000000	95.040	37.8415
2500.000000	94.604	39.3866
2540.000000	94.023	45.0556
2580.000000	93.855	53.0397
2620.000000	94.192	60.9540
2650.000000	94.630	65.9515
2690.000000	95.350	71.4827
2720.000000	95.939	74.6914
2760.000000	96.724	78.0199
2800.000000	97.506	80.5276
2850.000000	98.453	82.7925
2900.000000	99.422	84.4690
2950.000000	100.451	85.1044
3000.000000	101.376	84.0983
3040.000000	101.957	82.8043
3070.000000	102.337	82.0092
3110.000000	102.859	81.2479
3150.000000	103.415	80.2828
3200.000000	104.093	78.5736
3250.000000	104.751	76.3323
3300.000000	105.350	73.5168
3350.000000	105.882	70.2347
3400.000000	106.319	66.5704
3450.000000	106.678	62.7086
3500.000000	106.956	58.6109
3550.000000	107.128	54.3245
3600.000000	107.190	50.1813
3650.000000	107.181	46.2468
3700.000000	107.102	42.4150
3750.000000	106.928	38.7988
3820.000000	106.568	34.5349
3870.000000	106.262	32.0530
3950.000000	105.725	28.9283
4000.000000	105.357	27.4802
4060.000000	104.899	26.4464
4120.000000	104.481	26.0795
4180.000000	104.123	25.9254
4250.000000	103.708	25.8696
4310.000000	103.348	26.2682
4370.000000	103.029	26.9551
4440.000000	102.670	27.8481
4500.000000	102.348	28.9837
4550.000000	102.091	30.3175
4620.000000	101.795	32.6965
4680.000000	101.611	35.0020
4750.000000	101.469	37.9405
4820.000000	101.421	41.1037
4870.000000	101.447	43.4092
4940.000000	101.562	46.6442
5000.000000	101.738	49.4687
5080.000000	102.123	53.1724
5150.000000	102.600	56.0593
5220.000000	103.211	58.5640
5300.000000	104.112	60.6272
5380.000000	105.209	61.1358
5450.000000	106.269	59.7726
5520.000000	107.341	56.2918
5600.000000	108.437	49.2300
5700.000000	109.239	35.7521
5800.000000	109.043	20.2812
5900.000000	107.921	7.8890
6000.000000	106.326	0.7949
6080.000000	105.008	-1.5305
6150.000000	103.952	-1.8105
6220.000000	103.034	-1.0363
6300.000000	102.156	0.6553
6400.000000	101.299	3.4464
6500.000000	100.674	6.5516
6600.000000	100.249	9.6866
6700.000000	100.014	12.8090
6800.000000	100.024	15.6005
6900.000000	100.294	17.3417
7000.000000	100.784	17.1575
7100.000000	101.387	14.0510
7200.000000	101.870	6.9288
7300.000000	101.868	-4.2096
7400.000000	101.046	-16.6785
7500.000000	99.333	-25.4968
7620.000000	96.679	-27.3824
7750.000000	94.356	-23.4111
7880.000000	92.920	-21.0940
8000.000000	91.612	-21.1898
8120.000000	89.951	-20.5762
8250.000000	87.816	-16.6349
8380.000000	85.536	-6.8696
8500.000000	84.003	9.1221
8620.000000	84.567	26.9531
8750.000000	86.671	34.7635
8850.000000	87.808	30.7758
9000.000000	88.354	19.0457
9120.000000	88.306	9.4386
9250.000000	88.171	-2.1918
9380.000000	87.900	-17.3768
9500.000000	87.241	-34.6456
9620.000000	85.981	-52.7404
9750.000000	83.874	-68.9487
9880.000000	81.196	-76.7809
10000.000000	78.891	-75.5157
10150.000000	77.589	-68.7632
10300.000000	77.746	-61.9441
10440.000000	78.527	-54.0874
10600.000000	80.700	-41.5651
10750.000000	84.474	-29.3714
10900.000000	89.206	-22.7240
11060.000000	93.879	-28.6078
11200.000000	96.558	-48.1060
11380.000000	97.330	-81.3875
11500.000000	96.597	-97.1442
11720.000000	94.949	-110.0767
11800.000000	94.579	-112.6123
12060.000000	93.821	-120.9591
12200.000000	93.308	-126.1588
12410.000000	92.021	-133.7162
12500.000000	91.211	-136.0604
12650.000000	89.463	-136.8557
12800.000000	87.298	-131.0206
13150.000000	84.475	-96.3374
13200.000000	84.568	-92.2272
13400.000000	84.879	-79.8153
13600.000000	85.015	-65.6455
13800.000000	86.371	-47.8428
14000.000000	88.885	-34.7955
14300.000000	92.540	-30.6110
14500.000000	94.523	-35.3673
14750.000000	96.033	-49.1211
15000.000000	95.835	-65.7604
15250.000000	94.453	-76.7272
15500.000000	92.530	-83.8077
15750.000000	89.684	-83.9800
16000.000000	85.988	-65.5438
16250.000000	85.092	-28.1185
16500.000000	88.104	-5.5762
16750.000000	90.175	-5.5184
17000.000000	91.129	-11.8425
17250.000000	91.242	-20.8931
17500.000000	90.093	-30.1815
17750.000000	87.355	-26.0238
18000.000000	85.015	7.1836
18250.000000	87.805	43.7514
18500.000000	91.008	50.5212
18750.000000	92.621	40.0735
19000.000000	92.920	27.8704
19250.000000	92.204	19.8867
19500.000000	90.905	19.5297
19750.000000	90.025	24.7341
