* Measurement data measured by REW V5.20.13
* Source: EXCL: Headset (KM-HIFI-384KHZ), MICROPHONE (Master Volume), 0, volume: 1.000
* Format: 256k Log Swept Sine, 1 sweep at -20.0 dBFS with no timing reference
* Dated: Nov 11, 2023 10:43:38 PM
* REW Settings:
*  C-weighting compensation: Off
*  Target level: 75.0 dB
* Note: ; 
* Measurement: Cate 300ohm Philphone L
* Smoothing: 1/24 octave
* Frequency Step: 1/48 octave
* Start Frequency: 20.000 Hz
*
* Freq(Hz)	SPL(dB)	Phase(degrees)
20.000000	88.363	148.7657
20.299999	88.582	147.4769
20.600000	88.800	146.2278
20.900000	89.020	144.9943
21.200001	89.239	143.7524
21.400000	89.383	142.9147
21.799999	89.663	141.2271
22.000000	89.798	140.3859
22.400000	90.060	138.7318
22.700001	90.253	137.5226
23.000000	90.445	136.3315
23.299999	90.637	135.1392
23.600000	90.827	133.9301
24.000000	91.073	132.2818
24.299999	91.248	131.0294
24.700001	91.469	129.3694
25.000000	91.627	128.1529
25.400000	91.831	126.5779
25.799999	92.032	125.0369
26.200001	92.232	123.4941
26.500000	92.378	122.3204
26.900000	92.564	120.7327
27.200001	92.696	119.5363
27.600000	92.861	117.9553
28.000000	93.016	116.4095
28.500000	93.204	114.5267
29.000000	93.389	112.6558
29.500000	93.570	110.7325
30.000000	93.737	108.7099
30.400000	93.850	107.0297
30.700001	93.918	105.7590
31.100000	93.985	104.1081
31.500000	94.027	102.5728
32.000000	94.055	100.9092
32.500000	94.077	99.5836
33.000000	94.118	98.5714
33.500000	94.199	97.7666
34.000000	94.330	96.9894
34.500000	94.500	96.0425
35.000000	94.688	94.8008
35.500000	94.862	93.2475
36.000000	95.002	91.4684
36.500000	95.096	89.5825
37.000000	95.146	87.7039
37.500000	95.152	85.9182
38.200001	95.099	83.7038
38.700001	95.028	82.3914
39.500000	94.872	80.8654
40.000000	94.762	80.3610
40.599998	94.646	80.2995
41.200001	94.596	80.7610
41.799999	94.644	81.4546
42.500000	94.818	82.0920
43.099998	95.027	82.2576
43.700001	95.255	82.0512
44.400002	95.515	81.4412
45.000000	95.722	80.7244
45.500000	95.886	80.0651
46.200001	96.112	79.0854
46.799999	96.306	78.1647
47.500000	96.530	76.9424
48.200001	96.740	75.5570
48.700001	96.877	74.4888
49.400002	97.045	72.9272
50.000000	97.169	71.5789
50.799999	97.314	69.8306
51.500000	97.432	68.3282
52.200001	97.542	66.7864
53.000000	97.646	64.9741
53.799999	97.723	63.2130
54.500000	97.782	61.7714
55.200001	97.842	60.3828
56.000000	97.910	58.7852
57.000000	97.980	56.8066
58.000000	98.044	54.9236
59.000000	98.103	53.0551
60.000000	98.148	51.2107
60.799999	98.173	49.7781
61.500000	98.189	48.5507
62.200001	98.197	47.3557
63.000000	98.199	46.0303
64.000000	98.191	44.4408
65.000000	98.177	42.9399
66.000000	98.159	41.4941
67.000000	98.134	40.1312
68.000000	98.112	38.8554
69.000000	98.091	37.6067
70.000000	98.064	36.3973
71.000000	98.035	35.2614
72.000000	98.007	34.1853
73.000000	97.981	33.1289
74.000000	97.952	32.0996
75.000000	97.922	31.1125
76.199997	97.888	29.9421
77.500000	97.843	28.7176
78.800003	97.795	27.5762
80.000000	97.754	26.5880
81.199997	97.714	25.6242
82.500000	97.669	24.6108
83.800003	97.621	23.6341
85.000000	97.577	22.7578
86.199997	97.533	21.9031
87.500000	97.487	21.0197
88.500000	97.458	20.3589
90.000000	97.418	19.3757
91.199997	97.386	18.6082
92.500000	97.346	17.7950
93.800003	97.302	17.0293
95.000000	97.258	16.3295
96.199997	97.210	15.6535
97.500000	97.160	14.9464
98.800003	97.113	14.2341
100.000000	97.066	13.5681
101.500000	96.999	12.8248
103.000000	96.935	12.1662
104.400002	96.879	11.5698
106.000000	96.816	10.9022
107.500000	96.756	10.3171
109.000000	96.705	9.7881
110.599998	96.662	9.2299
112.000000	96.631	8.6995
113.800003	96.591	7.9510
115.000000	96.565	7.4307
117.199997	96.513	6.4843
118.000000	96.492	6.1465
120.599998	96.402	5.0633
122.000000	96.338	4.5044
124.099998	96.236	3.6138
125.000000	96.190	3.1925
126.500000	96.108	2.4456
128.000000	96.011	1.6799
131.500000	95.665	0.2657
132.000000	95.600	0.1743
134.000000	95.333	0.2410
136.000000	95.133	0.8876
138.000000	95.061	1.6805
140.000000	95.086	2.2585
143.000000	95.150	2.5562
145.000000	95.141	2.5175
147.500000	95.091	2.3116
150.000000	95.043	1.9346
152.500000	95.007	1.5044
155.000000	94.968	1.1576
157.500000	94.917	0.8741
160.000000	94.859	0.6212
162.500000	94.799	0.3873
165.000000	94.740	0.1512
167.500000	94.684	-0.0825
170.000000	94.628	-0.3158
172.500000	94.569	-0.5210
175.000000	94.509	-0.7374
177.500000	94.443	-0.9713
180.000000	94.374	-1.1718
182.500000	94.310	-1.3043
185.000000	94.258	-1.4002
187.500000	94.207	-1.4906
190.000000	94.143	-1.6039
192.500000	94.065	-1.7730
195.000000	93.982	-1.9566
197.500000	93.912	-2.0449
200.000000	93.857	-2.0527
203.000000	93.791	-2.0554
206.000000	93.715	-2.0450
209.000000	93.631	-1.9747
212.000000	93.547	-1.8852
214.000000	93.498	-1.8326
218.000000	93.415	-1.6888
220.000000	93.372	-1.5887
224.000000	93.285	-1.4188
227.000000	93.225	-1.3734
230.000000	93.163	-1.2732
233.000000	93.102	-1.1144
236.000000	93.041	-0.9911
240.000000	92.964	-0.8304
243.000000	92.914	-0.6451
247.000000	92.848	-0.3828
250.000000	92.798	-0.2438
254.000000	92.738	-0.0613
258.000000	92.682	0.1761
262.000000	92.626	0.3379
265.000000	92.583	0.3786
269.000000	92.509	0.4387
272.000000	92.445	0.5391
276.000000	92.371	0.7272
280.000000	92.302	0.9573
285.000000	92.218	1.2741
290.000000	92.122	1.7498
295.000000	92.016	2.3223
300.000000	91.914	2.8804
304.000000	91.848	3.3504
307.000000	91.804	3.6693
311.000000	91.732	4.1602
315.000000	91.669	4.7853
320.000000	91.648	5.4499
325.000000	91.629	5.7976
330.000000	91.571	6.0878
335.000000	91.491	6.5237
340.000000	91.410	7.1467
345.000000	91.341	7.8702
350.000000	91.299	8.7203
355.000000	91.274	9.4856
360.000000	91.257	10.0984
365.000000	91.247	10.6470
370.000000	91.237	11.1890
375.000000	91.227	11.7040
382.000000	91.196	12.3967
387.000000	91.168	12.9222
395.000000	91.133	13.6995
400.000000	91.108	14.1785
406.000000	91.105	14.6839
412.000000	91.111	15.0778
418.000000	91.070	15.4465
425.000000	91.029	15.9431
431.000000	91.029	16.6501
437.000000	91.013	17.3508
444.000000	90.997	17.9974
450.000000	90.986	18.4636
455.000000	90.961	18.7892
462.000000	90.916	19.2336
468.000000	90.886	19.6600
475.000000	90.849	20.2905
482.000000	90.821	21.1060
487.000000	90.805	21.5602
494.000000	90.781	22.0614
500.000000	90.764	22.6346
508.000000	90.716	23.6664
515.000000	90.639	24.6029
522.000000	90.558	25.3307
530.000000	90.538	26.0970
538.000000	90.536	27.0778
545.000000	90.493	27.6074
552.000000	90.521	27.7653
560.000000	90.596	28.3630
570.000000	90.599	28.9414
580.000000	90.545	28.4187
590.000000	90.295	27.1607
600.000000	89.563	28.2321
608.000000	89.103	32.8489
615.000000	89.157	36.9727
622.000000	89.384	39.4781
630.000000	89.597	41.0720
640.000000	89.734	42.3489
650.000000	89.803	43.6235
660.000000	89.865	44.9134
670.000000	89.911	46.3514
680.000000	89.985	47.6870
690.000000	90.046	48.8851
700.000000	90.043	50.0374
710.000000	90.005	51.4512
720.000000	90.049	53.6226
730.000000	90.147	55.4319
740.000000	90.316	56.8396
750.000000	90.491	58.5651
762.000000	90.658	60.3455
775.000000	90.858	61.7053
788.000000	91.020	62.9960
800.000000	91.150	64.3512
812.000000	91.319	65.7849
825.000000	91.533	67.2014
838.000000	91.721	68.3114
850.000000	91.878	69.1950
862.000000	92.029	69.9534
875.000000	92.156	70.8583
885.000000	92.250	71.6939
900.000000	92.400	73.0144
912.000000	92.535	74.0651
925.000000	92.696	75.0982
938.000000	92.847	76.1023
950.000000	92.990	76.9661
962.000000	93.125	77.7122
975.000000	93.254	78.5806
988.000000	93.397	79.5954
1000.000000	93.550	80.5013
1015.000000	93.734	81.4382
1030.000000	93.891	82.3785
1044.000000	94.053	83.3464
1060.000000	94.248	84.3000
1075.000000	94.419	85.2899
1090.000000	94.628	86.3274
1106.000000	94.879	87.0869
1120.000000	95.071	87.4230
1138.000000	95.222	87.8599
1150.000000	95.303	88.6989
1172.000000	95.620	90.3391
1180.000000	95.747	90.7083
1206.000000	96.162	91.6057
1220.000000	96.375	91.8235
1241.000000	96.660	91.9835
1250.000000	96.771	92.0164
1265.000000	96.941	92.0757
1280.000000	97.103	92.1951
1315.000000	97.512	92.3425
1320.000000	97.571	92.2782
1340.000000	97.763	91.8045
1360.000000	97.880	91.4421
1380.000000	97.961	91.3878
1400.000000	98.037	91.7353
1430.000000	98.276	92.8125
1450.000000	98.513	92.9236
1475.000000	98.707	92.5758
1500.000000	98.876	92.7222
1525.000000	99.112	92.7482
1550.000000	99.360	92.3552
1575.000000	99.585	91.4424
1600.000000	99.717	90.3137
1625.000000	99.801	89.4696
1650.000000	99.875	88.6659
1675.000000	99.926	87.8386
1700.000000	99.963	87.1340
1725.000000	100.030	86.4987
1750.000000	100.132	85.4720
1775.000000	100.194	83.8585
1800.000000	100.208	82.0273
1825.000000	100.206	79.6474
1850.000000	100.095	76.2510
1875.000000	99.735	72.2681
1900.000000	99.060	68.9106
1925.000000	98.141	67.2516
1950.000000	97.105	67.6216
1975.000000	96.049	69.9493
2000.000000	95.057	74.1116
2030.000000	94.048	81.3719
2060.000000	93.474	91.0640
2090.000000	93.587	100.3140
2120.000000	94.004	107.0337
2140.000000	94.318	110.4482
2180.000000	94.925	115.3490
2200.000000	95.184	116.9534
2240.000000	95.463	119.2087
2270.000000	95.480	121.6145
2300.000000	95.560	125.3319
2330.000000	95.871	129.1901
2360.000000	96.319	131.7765
2400.000000	96.749	132.8363
2430.000000	96.786	133.4225
2470.000000	96.664	136.0373
2500.000000	96.629	139.3004
2540.000000	96.798	144.2996
2580.000000	97.128	148.8402
2620.000000	97.502	153.2268
2650.000000	97.874	156.6143
2690.000000	98.498	160.5408
2720.000000	99.007	162.8212
2760.000000	99.673	165.0224
2800.000000	100.294	166.6292
2850.000000	101.018	168.0129
2900.000000	101.605	168.7961
2950.000000	102.116	170.2936
3000.000000	102.754	172.1107
3040.000000	103.346	172.9482
3070.000000	103.786	173.1155
3110.000000	104.318	172.9832
3150.000000	104.802	172.5837
3200.000000	105.378	171.7874
3250.000000	105.923	170.5706
3300.000000	106.399	169.0316
3350.000000	106.814	167.3297
3400.000000	107.205	165.5122
3450.000000	107.585	163.3263
3500.000000	107.910	160.5019
3550.000000	108.115	157.0592
3600.000000	108.147	153.5438
3650.000000	108.060	150.4790
3700.000000	107.916	147.7826
3750.000000	107.710	145.2121
3820.000000	107.261	142.1190
3870.000000	106.847	140.7445
3950.000000	106.194	139.8906
4000.000000	105.817	139.7400
4060.000000	105.369	139.7478
4120.000000	104.911	139.9545
4180.000000	104.416	140.3156
4250.000000	103.752	141.5421
4310.000000	103.205	143.4964
4370.000000	102.731	145.8579
4440.000000	102.245	148.6522
4500.000000	101.827	151.1443
4550.000000	101.481	153.4495
4620.000000	101.002	156.9228
4680.000000	100.573	160.4986
4750.000000	100.175	165.6335
4820.000000	99.967	170.7881
4870.000000	99.874	174.1412
4940.000000	99.750	178.6788
5000.000000	99.668	-177.2399
5080.000000	99.679	-171.6706
5150.000000	99.778	-167.0893
5220.000000	99.953	-162.6276
5300.000000	100.312	-157.8723
5380.000000	100.844	-154.2686
5450.000000	101.364	-152.6769
5520.000000	101.823	-152.6385
5600.000000	102.196	-154.1550
5700.000000	102.324	-157.9974
5800.000000	101.920	-162.8300
5900.000000	100.894	-166.1299
6000.000000	99.493	-165.5808
6080.000000	98.350	-162.6202
6150.000000	97.419	-158.6752
6220.000000	96.568	-153.7296
6300.000000	95.729	-146.7764
6400.000000	95.054	-136.8499
6500.000000	94.838	-127.1907
6600.000000	94.973	-118.9443
6700.000000	95.315	-112.9705
6800.000000	95.612	-109.9248
6900.000000	95.613	-108.6059
7000.000000	95.392	-107.5825
7100.000000	95.029	-107.0818
7200.000000	94.467	-107.5465
7300.000000	93.576	-108.9357
7400.000000	92.185	-110.3423
7500.000000	90.182	-109.9950
7620.000000	86.881	-103.0154
7750.000000	82.481	-63.7886
7880.000000	84.972	12.3733
8000.000000	90.483	44.7246
8120.000000	94.483	42.6898
8250.000000	97.337	28.7143
8380.000000	98.739	8.9661
8500.000000	98.549	-11.6967
8620.000000	96.781	-28.4507
8750.000000	93.233	-33.1523
8850.000000	89.642	-22.1332
9000.000000	84.724	18.7235
9120.000000	85.174	55.2995
9250.000000	88.319	80.4487
9380.000000	91.310	90.7088
9500.000000	93.399	90.7045
9620.000000	94.547	84.4772
9750.000000	94.551	76.1241
9880.000000	93.464	72.6110
10000.000000	91.938	76.4798
10150.000000	90.225	89.9916
10300.000000	89.714	107.5746
10440.000000	90.237	121.9613
10600.000000	91.124	134.0752
10750.000000	91.835	143.0812
10900.000000	92.537	152.0674
11060.000000	93.686	161.7539
11200.000000	95.102	167.5714
11380.000000	96.486	166.7443
11500.000000	96.578	163.8846
11720.000000	95.834	166.8191
11800.000000	95.727	170.1174
12060.000000	96.322	179.7188
12200.000000	96.855	-177.4000
12410.000000	97.705	-175.7050
12500.000000	98.079	-176.1702
12650.000000	98.627	-179.0055
12800.000000	98.961	175.4210
13150.000000	98.139	153.9615
13200.000000	97.769	150.5800
13400.000000	95.547	139.8325
13600.000000	92.276	138.3542
13800.000000	88.587	149.6290
14000.000000	86.136	170.9611
14300.000000	88.434	-159.2138
14500.000000	91.494	-154.1980
14750.000000	94.235	-164.7939
15000.000000	95.432	178.5951
15250.000000	95.640	165.7656
15500.000000	95.411	159.0764
15750.000000	95.261	157.7928
16000.000000	95.417	158.3976
16250.000000	95.478	158.9550
16500.000000	95.284	162.1491
16750.000000	95.553	168.2995
17000.000000	96.296	170.1580
17250.000000	96.204	166.4037
17500.000000	95.013	165.2284
17750.000000	93.281	169.1055
18000.000000	91.058	-179.6063
18250.000000	89.025	-157.1827
18500.000000	89.036	-131.8721
18750.000000	90.420	-114.0841
19000.000000	91.629	-104.8006
19250.000000	92.157	-100.1254
19500.000000	92.060	-96.5822
19750.000000	91.443	-93.2838
