* Measurement data measured by REW V5.20.13
* Source: EXCL: Headset (KM-HIFI-384KHZ), MICROPHONE (Master Volume), 0, volume: 1.000
* Format: 256k Log Swept Sine, 1 sweep at -24.0 dBFS with no timing reference
* Dated: Oct 27, 2023 7:32:21 PM
* REW Settings:
*  C-weighting compensation: Off
*  Target level: 75.0 dB
* Note: ; 
* Measurement: Phil Phone 300ohm R
* Smoothing: 1/24 octave
* Frequency Step: 1/48 octave
* Start Frequency: 20.000 Hz
*
* Freq(Hz)	SPL(dB)	Phase(degrees)
20.000000	73.917	-62.3825
20.299999	74.133	-63.3503
20.600000	74.336	-64.3315
20.900000	74.533	-65.2904
21.200001	74.729	-66.2297
21.400000	74.862	-66.8712
21.799999	75.128	-68.2446
22.000000	75.256	-68.9924
22.400000	75.488	-70.5969
22.700001	75.633	-71.8191
23.000000	75.754	-72.9553
23.299999	75.862	-73.9320
23.600000	75.971	-74.7330
24.000000	76.141	-75.5871
24.299999	76.295	-76.1802
24.700001	76.533	-77.0702
25.000000	76.721	-77.8855
25.400000	76.964	-79.1759
25.799999	77.181	-80.6080
26.200001	77.370	-82.0598
26.500000	77.497	-83.1099
26.900000	77.657	-84.4370
27.200001	77.773	-85.3869
27.600000	77.925	-86.6203
28.000000	78.074	-87.8492
28.500000	78.250	-89.4070
29.000000	78.405	-90.9678
29.500000	78.536	-92.4566
30.000000	78.656	-93.7951
30.400000	78.756	-94.7607
30.700001	78.839	-95.4572
31.100000	78.959	-96.4138
31.500000	79.082	-97.4484
32.000000	79.227	-98.8488
32.500000	79.354	-100.2791
33.000000	79.468	-101.6484
33.500000	79.583	-102.9584
34.000000	79.702	-104.2719
34.500000	79.816	-105.6184
35.000000	79.919	-106.9594
35.500000	80.014	-108.2428
36.000000	80.109	-109.4718
36.500000	80.205	-110.6972
37.000000	80.296	-111.9538
37.500000	80.373	-113.2162
38.200001	80.461	-114.8931
38.700001	80.521	-116.0162
39.500000	80.620	-117.8330
40.000000	80.671	-119.0213
40.599998	80.714	-120.4242
41.200001	80.748	-121.7070
41.799999	80.794	-122.9052
42.500000	80.866	-124.3611
43.099998	80.924	-125.7164
43.700001	80.971	-127.0997
44.400002	81.014	-128.6780
45.000000	81.046	-130.0143
45.500000	81.064	-131.1230
46.200001	81.074	-132.6288
46.799999	81.070	-133.8566
47.500000	81.050	-135.2363
48.200001	81.006	-136.5103
48.700001	80.962	-137.2890
49.400002	80.907	-138.1817
50.000000	80.878	-138.8643
50.799999	80.863	-139.8425
51.500000	80.852	-140.8508
52.200001	80.819	-141.9753
53.000000	80.736	-143.1666
53.799999	80.630	-143.9511
54.500000	80.562	-144.2939
55.200001	80.536	-144.4807
56.000000	80.558	-144.6926
57.000000	80.639	-145.1885
58.000000	80.738	-146.0844
59.000000	80.809	-147.4591
60.000000	80.787	-149.0934
60.799999	80.702	-150.1919
61.500000	80.608	-150.8923
62.200001	80.511	-151.3748
63.000000	80.409	-151.6645
64.000000	80.328	-151.7221
65.000000	80.314	-151.7370
66.000000	80.342	-151.9006
67.000000	80.390	-152.2353
68.000000	80.443	-152.6966
69.000000	80.502	-153.2432
70.000000	80.562	-153.9496
71.000000	80.599	-154.7823
72.000000	80.616	-155.6185
73.000000	80.616	-156.4440
74.000000	80.599	-157.2099
75.000000	80.575	-157.8492
76.199997	80.557	-158.5377
77.500000	80.541	-159.2914
78.800003	80.527	-160.0562
80.000000	80.506	-160.7928
81.199997	80.478	-161.4571
82.500000	80.461	-162.0781
83.800003	80.467	-162.7265
85.000000	80.477	-163.4197
86.199997	80.476	-164.1824
87.500000	80.451	-165.0238
88.500000	80.414	-165.6291
90.000000	80.349	-166.4764
91.199997	80.295	-167.1576
92.500000	80.238	-167.8923
93.800003	80.186	-168.5991
95.000000	80.139	-169.2259
96.199997	80.083	-169.7606
97.500000	80.019	-170.2300
98.800003	79.944	-170.6710
100.000000	79.862	-171.0170
101.500000	79.761	-171.2914
103.000000	79.699	-171.3837
104.400002	79.688	-171.5204
106.000000	79.681	-171.8362
107.500000	79.657	-172.2160
109.000000	79.615	-172.7021
110.599998	79.555	-173.2752
112.000000	79.510	-173.7093
113.800003	79.477	-174.0854
115.000000	79.459	-174.2645
117.199997	79.355	-174.3789
118.000000	79.300	-174.2839
120.599998	79.218	-174.2952
122.000000	79.177	-175.0506
124.099998	79.074	-176.0534
125.000000	79.040	-176.3455
126.500000	78.998	-176.7458
128.000000	78.952	-177.1522
131.500000	78.791	-177.8152
132.000000	78.769	-177.8653
134.000000	78.678	-177.9277
136.000000	78.594	-177.8872
138.000000	78.493	-178.1307
140.000000	78.360	-178.4441
143.000000	78.168	-178.5428
145.000000	78.041	-178.2589
147.500000	77.915	-177.6860
150.000000	77.885	-177.3594
152.500000	77.921	-177.1038
155.000000	77.940	-176.8093
157.500000	77.878	-176.6177
160.000000	77.807	-176.5364
162.500000	77.776	-176.5096
165.000000	77.745	-176.3389
167.500000	77.696	-176.1497
170.000000	77.653	-176.1917
172.500000	77.621	-176.2468
175.000000	77.587	-176.1271
177.500000	77.537	-176.0585
180.000000	77.475	-176.1589
182.500000	77.444	-176.2161
185.000000	77.435	-176.2212
187.500000	77.387	-176.2061
190.000000	77.305	-176.1232
192.500000	77.232	-176.0661
195.000000	77.174	-176.0904
197.500000	77.109	-176.0435
200.000000	77.049	-175.8011
203.000000	76.992	-175.4732
206.000000	76.932	-175.2340
209.000000	76.869	-175.0656
212.000000	76.827	-174.7802
214.000000	76.820	-174.5881
218.000000	76.803	-174.3914
220.000000	76.779	-174.3029
224.000000	76.712	-174.0021
227.000000	76.644	-173.7796
230.000000	76.576	-173.6315
233.000000	76.532	-173.4579
236.000000	76.507	-173.1872
240.000000	76.464	-172.7797
243.000000	76.418	-172.5697
247.000000	76.341	-172.2834
250.000000	76.293	-172.0591
254.000000	76.246	-171.6519
258.000000	76.204	-171.1278
262.000000	76.170	-170.6688
265.000000	76.147	-170.3083
269.000000	76.117	-169.7723
272.000000	76.091	-169.4606
276.000000	76.045	-169.0882
280.000000	75.989	-168.7122
285.000000	75.921	-168.3465
290.000000	75.898	-167.8423
295.000000	75.865	-167.4429
300.000000	75.819	-166.6228
304.000000	75.800	-166.0398
307.000000	75.781	-165.7399
311.000000	75.755	-165.3999
315.000000	75.733	-165.1116
320.000000	75.690	-164.7318
325.000000	75.632	-164.2336
330.000000	75.596	-163.5507
335.000000	75.591	-162.8240
340.000000	75.597	-162.2467
345.000000	75.548	-161.7253
350.000000	75.493	-161.1123
355.000000	75.467	-160.5718
360.000000	75.471	-160.1089
365.000000	75.461	-159.5786
370.000000	75.424	-159.0984
375.000000	75.389	-158.6110
382.000000	75.342	-157.6339
387.000000	75.316	-156.9265
395.000000	75.296	-156.0030
400.000000	75.289	-155.5332
406.000000	75.288	-154.8873
412.000000	75.269	-154.1235
418.000000	75.249	-153.4186
425.000000	75.228	-152.6205
431.000000	75.225	-151.8289
437.000000	75.234	-151.0614
444.000000	75.234	-150.2569
450.000000	75.232	-149.5927
455.000000	75.222	-149.0723
462.000000	75.196	-148.2566
468.000000	75.185	-147.4357
475.000000	75.180	-146.5561
482.000000	75.191	-145.8272
487.000000	75.199	-145.3206
494.000000	75.197	-144.5172
500.000000	75.186	-143.7758
508.000000	75.178	-142.7703
515.000000	75.186	-141.7816
522.000000	75.206	-140.7550
530.000000	75.249	-139.6974
538.000000	75.291	-138.7414
545.000000	75.319	-137.9067
552.000000	75.350	-137.0741
560.000000	75.405	-136.2146
570.000000	75.479	-135.3330
580.000000	75.530	-134.4972
590.000000	75.577	-133.7304
600.000000	75.586	-133.1386
608.000000	75.552	-132.5059
615.000000	75.511	-131.6371
622.000000	75.489	-130.5383
630.000000	75.510	-129.2572
640.000000	75.575	-127.8871
650.000000	75.636	-126.5657
660.000000	75.721	-125.0499
670.000000	75.852	-123.6700
680.000000	75.998	-122.6533
690.000000	76.129	-121.8755
700.000000	76.250	-121.2206
710.000000	76.360	-120.6752
720.000000	76.440	-120.2247
730.000000	76.496	-119.7112
740.000000	76.540	-119.1288
750.000000	76.574	-118.4489
762.000000	76.621	-117.5184
775.000000	76.689	-116.4927
788.000000	76.765	-115.5376
800.000000	76.829	-114.6462
812.000000	76.895	-113.7467
825.000000	76.961	-112.7271
838.000000	77.028	-111.7356
850.000000	77.088	-110.8579
862.000000	77.147	-109.9720
875.000000	77.210	-108.9737
885.000000	77.257	-108.1444
900.000000	77.340	-106.8577
912.000000	77.422	-105.8417
925.000000	77.531	-104.8022
938.000000	77.644	-103.9029
950.000000	77.739	-103.1860
962.000000	77.821	-102.4965
975.000000	77.899	-101.7409
988.000000	77.964	-100.9842
1000.000000	78.013	-100.1945
1015.000000	78.075	-99.0138
1030.000000	78.170	-97.6946
1044.000000	78.286	-96.6262
1060.000000	78.414	-95.4823
1075.000000	78.551	-94.4368
1090.000000	78.690	-93.5627
1106.000000	78.814	-92.7406
1120.000000	78.909	-91.9527
1138.000000	79.024	-90.8973
1150.000000	79.100	-90.0975
1172.000000	79.287	-88.4404
1180.000000	79.370	-87.9154
1206.000000	79.629	-86.4795
1220.000000	79.774	-85.7790
1241.000000	79.979	-84.8851
1250.000000	80.064	-84.4970
1265.000000	80.214	-83.8506
1280.000000	80.375	-83.3122
1315.000000	80.712	-82.3939
1320.000000	80.758	-82.2770
1340.000000	80.927	-81.8367
1360.000000	81.102	-81.3796
1380.000000	81.275	-81.1556
1400.000000	81.425	-81.0752
1430.000000	81.533	-81.3086
1450.000000	81.509	-80.5006
1475.000000	81.737	-78.7222
1500.000000	82.032	-78.6672
1525.000000	82.169	-78.9073
1550.000000	82.286	-78.7762
1575.000000	82.401	-78.5410
1600.000000	82.535	-78.3821
1625.000000	82.679	-78.1342
1650.000000	82.876	-78.5142
1675.000000	82.944	-79.4079
1700.000000	82.948	-79.8825
1725.000000	82.954	-80.2544
1750.000000	82.922	-80.5155
1775.000000	82.912	-80.5692
1800.000000	82.917	-80.9120
1825.000000	82.865	-81.4512
1850.000000	82.774	-81.6988
1875.000000	82.696	-82.0166
1900.000000	82.578	-82.4549
1925.000000	82.425	-82.8594
1950.000000	82.245	-83.2244
1975.000000	82.033	-83.7717
2000.000000	81.707	-84.4101
2030.000000	81.152	-84.1564
2060.000000	80.588	-82.7955
2090.000000	79.976	-80.6080
2120.000000	79.384	-76.4351
2140.000000	79.168	-73.0632
2180.000000	79.010	-67.4293
2200.000000	78.970	-65.0347
2240.000000	78.852	-60.8110
2270.000000	78.717	-57.3200
2300.000000	78.610	-53.6364
2330.000000	78.458	-49.5528
2360.000000	78.397	-44.0782
2400.000000	78.818	-36.5464
2430.000000	79.289	-32.8433
2470.000000	79.756	-29.3434
2500.000000	80.057	-26.5133
2540.000000	80.565	-22.6405
2580.000000	81.202	-19.5078
2620.000000	81.867	-17.9674
2650.000000	82.243	-17.7450
2690.000000	82.581	-17.4691
2720.000000	82.786	-16.9576
2760.000000	83.070	-16.1247
2800.000000	83.337	-15.5603
2850.000000	83.582	-15.0749
2900.000000	83.739	-14.2734
2950.000000	83.888	-13.2137
3000.000000	84.000	-12.0801
3040.000000	84.063	-10.8957
3070.000000	84.119	-9.8099
3110.000000	84.222	-8.1916
3150.000000	84.369	-6.5580
3200.000000	84.580	-4.7051
3250.000000	84.822	-2.9308
3300.000000	85.078	-1.5531
3350.000000	85.299	-0.1657
3400.000000	85.573	1.3712
3450.000000	85.922	2.5421
3500.000000	86.294	3.0156
3550.000000	86.636	2.7156
3600.000000	86.890	1.8175
3650.000000	87.051	0.6893
3700.000000	87.129	-0.5347
3750.000000	87.135	-1.7420
3820.000000	87.023	-3.4202
3870.000000	86.842	-4.3756
3950.000000	86.440	-5.1397
4000.000000	86.137	-5.1107
4060.000000	85.767	-4.5206
4120.000000	85.393	-3.6737
4180.000000	84.985	-2.3491
4250.000000	84.530	-0.1321
4310.000000	84.172	2.0902
4370.000000	83.832	4.5769
4440.000000	83.482	7.7984
4500.000000	83.216	10.5348
4550.000000	82.979	12.8948
4620.000000	82.653	16.6037
4680.000000	82.399	20.0812
4750.000000	82.152	24.5535
4820.000000	81.992	29.2051
4870.000000	81.915	32.4885
4940.000000	81.830	37.1735
5000.000000	81.800	41.4567
5080.000000	81.878	47.4620
5150.000000	82.103	52.7964
5220.000000	82.492	57.6830
5300.000000	83.085	62.3382
5380.000000	83.826	65.7799
5450.000000	84.540	67.2763
5520.000000	85.242	67.2575
5600.000000	85.973	65.1465
5700.000000	86.514	59.1287
5800.000000	86.368	51.2559
5900.000000	85.533	44.8226
6000.000000	84.280	41.4338
6080.000000	83.145	40.9189
6150.000000	82.130	41.8083
6220.000000	81.128	43.7984
6300.000000	80.043	47.1518
6400.000000	78.802	52.4927
6500.000000	77.691	58.9052
6600.000000	76.746	66.1376
6700.000000	76.020	73.5964
6800.000000	75.485	80.5917
6900.000000	75.065	86.6550
7000.000000	74.661	91.6847
7100.000000	74.196	95.8814
7200.000000	73.620	99.6163
7300.000000	72.922	103.3913
7400.000000	72.143	107.6336
7500.000000	71.375	112.5059
7620.000000	70.698	118.6933
7750.000000	70.700	123.1930
7880.000000	71.737	119.0629
8000.000000	73.036	100.9553
8120.000000	73.819	69.8292
8250.000000	74.051	33.2458
8380.000000	74.336	4.7388
8500.000000	74.955	-12.3553
8620.000000	75.855	-22.5716
8750.000000	77.142	-28.7007
8850.000000	78.415	-31.9999
9000.000000	80.619	-39.3888
9120.000000	82.017	-51.4565
9250.000000	82.298	-69.8912
9380.000000	80.998	-84.6881
9500.000000	78.877	-88.8010
9620.000000	76.701	-85.0745
9750.000000	74.948	-76.8515
9880.000000	73.831	-67.4634
10000.000000	73.113	-58.3063
10150.000000	72.521	-45.8558
10300.000000	72.317	-32.8052
10440.000000	72.438	-20.5018
10600.000000	73.118	-6.0511
10750.000000	74.450	5.2248
10900.000000	75.791	10.3080
11060.000000	76.384	10.8743
11200.000000	76.227	13.0813
11380.000000	76.011	21.0916
11500.000000	76.187	27.4394
11720.000000	76.802	37.2135
11800.000000	77.038	40.5621
12060.000000	78.652	52.1944
12200.000000	80.169	54.4767
12410.000000	81.724	46.0354
12500.000000	81.887	40.2170
12650.000000	81.721	31.2270
12800.000000	81.371	22.9872
13150.000000	80.067	-0.1777
13200.000000	79.792	-3.9478
13400.000000	78.494	-19.7409
13600.000000	76.891	-36.2629
13800.000000	74.907	-52.0779
14000.000000	72.408	-64.1217
14300.000000	67.486	-58.8172
14500.000000	65.784	-34.0112
14750.000000	68.654	-11.0843
15000.000000	71.244	-10.6262
15250.000000	72.543	-14.7294
15500.000000	73.644	-14.4231
15750.000000	75.258	-11.7942
16000.000000	77.254	-11.7134
16250.000000	78.746	-17.1454
16500.000000	79.226	-23.7988
16750.000000	79.183	-25.3794
17000.000000	79.709	-25.4525
17250.000000	79.827	-33.2439
17500.000000	78.133	-38.8849
17750.000000	75.507	-33.6594
18000.000000	73.287	-24.9265
18250.000000	71.253	-16.2267
18500.000000	68.899	-4.8097
18750.000000	66.391	11.6211
19000.000000	64.475	29.6587
19250.000000	63.250	45.7406
19500.000000	62.396	59.7379
19750.000000	61.728	71.6549
