* Measurement data measured by REW V5.20.13
* Source: EXCL: Headset (KM-HIFI-384KHZ), MICROPHONE (Master Volume), 0, volume: 1.000
* Format: 256k Log Swept Sine, 1 sweep at -20.0 dBFS with no timing reference
* Dated: Nov 12, 2023 7:07:14 AM
* REW Settings:
*  C-weighting compensation: Off
*  Target level: 75.0 dB
* Note: ; 
* Measurement: Poke HD-580 R
* Smoothing: 1/24 octave
* Frequency Step: 1/48 octave
* Start Frequency: 20.000 Hz
*
* Freq(Hz)	SPL(dB)	Phase(degrees)
20.000000	80.810	-51.7809
20.299999	80.980	-52.5518
20.600000	81.153	-53.3148
20.900000	81.326	-54.0988
21.200001	81.495	-54.9177
21.400000	81.603	-55.4749
21.799999	81.805	-56.5824
22.000000	81.900	-57.1158
22.400000	82.084	-58.1173
22.700001	82.219	-58.8157
23.000000	82.356	-59.4878
23.299999	82.493	-60.1517
23.600000	82.628	-60.8137
24.000000	82.805	-61.6890
24.299999	82.935	-62.3304
24.700001	83.107	-63.1605
25.000000	83.237	-63.7734
25.400000	83.410	-64.5986
25.799999	83.579	-65.4478
26.200001	83.742	-66.3123
26.500000	83.858	-66.9545
26.900000	84.007	-67.7835
27.200001	84.117	-68.3785
27.600000	84.261	-69.1396
28.000000	84.405	-69.8773
28.500000	84.586	-70.7899
29.000000	84.765	-71.7142
29.500000	84.938	-72.6559
30.000000	85.100	-73.5906
30.400000	85.222	-74.3041
30.700001	85.312	-74.8087
31.100000	85.433	-75.4474
31.500000	85.557	-76.0701
32.000000	85.716	-76.8685
32.500000	85.870	-77.7049
33.000000	86.016	-78.5521
33.500000	86.154	-79.3796
34.000000	86.289	-80.1842
34.500000	86.419	-80.9747
35.000000	86.545	-81.7450
35.500000	86.668	-82.4790
36.000000	86.790	-83.1793
36.500000	86.915	-83.8691
37.000000	87.039	-84.5676
37.500000	87.161	-85.2722
38.200001	87.326	-86.2516
38.700001	87.441	-86.9510
39.500000	87.619	-88.0895
40.000000	87.724	-88.8054
40.599998	87.845	-89.6624
41.200001	87.960	-90.5329
41.799999	88.065	-91.4202
42.500000	88.167	-92.4109
43.099998	88.247	-93.1432
43.700001	88.335	-93.7742
44.400002	88.454	-94.5031
45.000000	88.560	-95.1953
45.500000	88.644	-95.7926
46.200001	88.756	-96.5947
46.799999	88.859	-97.2726
47.500000	88.979	-98.1458
48.200001	89.083	-99.1024
48.700001	89.145	-99.7871
49.400002	89.219	-100.7168
50.000000	89.270	-101.4999
50.799999	89.315	-102.5052
51.500000	89.333	-103.2899
52.200001	89.338	-103.9521
53.000000	89.333	-104.5488
53.799999	89.323	-104.9811
54.500000	89.306	-105.2050
55.200001	89.283	-105.1769
56.000000	89.283	-104.7095
57.000000	89.395	-103.7093
58.000000	89.640	-102.9150
59.000000	89.949	-102.7098
60.000000	90.258	-103.0710
60.799999	90.481	-103.6334
61.500000	90.658	-104.2435
62.200001	90.818	-104.9259
63.000000	90.981	-105.7550
64.000000	91.162	-106.8223
65.000000	91.320	-107.9086
66.000000	91.460	-108.9777
67.000000	91.584	-110.0054
68.000000	91.699	-110.9740
69.000000	91.811	-111.8831
70.000000	91.922	-112.7700
71.000000	92.029	-113.6435
72.000000	92.134	-114.5092
73.000000	92.235	-115.3702
74.000000	92.331	-116.2108
75.000000	92.426	-117.0466
76.199997	92.532	-118.0773
77.500000	92.631	-119.1823
78.800003	92.722	-120.2300
80.000000	92.804	-121.1777
81.199997	92.883	-122.1154
82.500000	92.965	-123.1199
83.800003	93.044	-124.0986
85.000000	93.113	-124.9780
86.199997	93.179	-125.8337
87.500000	93.246	-126.7452
88.500000	93.295	-127.4424
90.000000	93.364	-128.4786
91.199997	93.417	-129.3013
92.500000	93.471	-130.1840
93.800003	93.524	-131.0537
95.000000	93.568	-131.8502
96.199997	93.607	-132.6287
97.500000	93.642	-133.4404
98.800003	93.673	-134.2137
100.000000	93.700	-134.8973
101.500000	93.734	-135.7296
103.000000	93.769	-136.5575
104.400002	93.797	-137.3263
106.000000	93.822	-138.1769
107.500000	93.837	-138.9142
109.000000	93.851	-139.5670
110.599998	93.875	-140.1779
112.000000	93.911	-140.7100
113.800003	93.966	-141.4844
115.000000	93.999	-142.0548
117.199997	94.044	-143.1381
118.000000	94.055	-143.5270
120.599998	94.081	-144.7560
122.000000	94.090	-145.4047
124.099998	94.100	-146.3411
125.000000	94.104	-146.7349
126.500000	94.109	-147.3908
128.000000	94.110	-148.0551
131.500000	94.068	-149.6028
132.000000	94.055	-149.7971
134.000000	93.994	-150.4025
136.000000	93.944	-150.7134
138.000000	93.931	-150.8736
140.000000	93.950	-151.0793
143.000000	94.003	-151.6033
145.000000	94.039	-152.0677
147.500000	94.078	-152.7402
150.000000	94.106	-153.4670
152.500000	94.121	-154.1982
155.000000	94.129	-154.9093
157.500000	94.130	-155.6006
160.000000	94.124	-156.2623
162.500000	94.114	-156.8883
165.000000	94.101	-157.4722
167.500000	94.088	-158.0112
170.000000	94.074	-158.5176
172.500000	94.062	-159.0064
175.000000	94.051	-159.4684
177.500000	94.041	-159.8895
180.000000	94.030	-160.3132
182.500000	94.012	-160.7650
185.000000	93.991	-161.1917
187.500000	93.974	-161.5834
190.000000	93.960	-161.9509
192.500000	93.945	-162.3048
195.000000	93.930	-162.6533
197.500000	93.916	-162.9962
200.000000	93.900	-163.3311
203.000000	93.881	-163.7228
206.000000	93.859	-164.0965
209.000000	93.835	-164.4447
212.000000	93.809	-164.7638
214.000000	93.793	-164.9594
218.000000	93.764	-165.3136
220.000000	93.750	-165.4811
224.000000	93.725	-165.8156
227.000000	93.705	-166.0606
230.000000	93.685	-166.2854
233.000000	93.665	-166.4868
236.000000	93.647	-166.6738
240.000000	93.627	-166.9169
243.000000	93.615	-167.0994
247.000000	93.597	-167.3392
250.000000	93.584	-167.5184
254.000000	93.566	-167.7554
258.000000	93.548	-167.9892
262.000000	93.527	-168.2135
265.000000	93.510	-168.3682
269.000000	93.487	-168.5543
272.000000	93.471	-168.6865
276.000000	93.448	-168.8522
280.000000	93.425	-168.9978
285.000000	93.397	-169.1592
290.000000	93.367	-169.2998
295.000000	93.336	-169.3993
300.000000	93.309	-169.4507
304.000000	93.289	-169.4506
307.000000	93.277	-169.4346
311.000000	93.266	-169.4078
315.000000	93.263	-169.3869
320.000000	93.264	-169.3982
325.000000	93.266	-169.4590
330.000000	93.264	-169.5443
335.000000	93.258	-169.6229
340.000000	93.250	-169.6826
345.000000	93.244	-169.7216
350.000000	93.241	-169.7654
355.000000	93.238	-169.8187
360.000000	93.234	-169.8815
365.000000	93.227	-169.9398
370.000000	93.220	-169.9760
375.000000	93.215	-169.9990
382.000000	93.210	-170.0331
387.000000	93.205	-170.0531
395.000000	93.200	-170.0728
400.000000	93.198	-170.0858
406.000000	93.195	-170.1019
412.000000	93.194	-170.1251
418.000000	93.191	-170.1588
425.000000	93.182	-170.1971
431.000000	93.174	-170.2086
437.000000	93.165	-170.1979
444.000000	93.159	-170.1531
450.000000	93.156	-170.1304
455.000000	93.153	-170.1221
462.000000	93.146	-170.0934
468.000000	93.140	-170.0542
475.000000	93.132	-169.9996
482.000000	93.126	-169.8971
487.000000	93.128	-169.8203
494.000000	93.133	-169.7550
500.000000	93.133	-169.7144
508.000000	93.129	-169.6389
515.000000	93.127	-169.5555
522.000000	93.125	-169.4756
530.000000	93.119	-169.3417
538.000000	93.119	-169.1757
545.000000	93.123	-169.0303
552.000000	93.129	-168.8768
560.000000	93.141	-168.7054
570.000000	93.160	-168.5331
580.000000	93.178	-168.3931
590.000000	93.192	-168.2589
600.000000	93.204	-168.0775
608.000000	93.222	-167.9273
615.000000	93.241	-167.8436
622.000000	93.253	-167.7979
630.000000	93.257	-167.7178
640.000000	93.262	-167.5096
650.000000	93.280	-167.2707
660.000000	93.303	-167.0812
670.000000	93.324	-166.9047
680.000000	93.343	-166.6978
690.000000	93.369	-166.4617
700.000000	93.401	-166.2496
710.000000	93.434	-166.0611
720.000000	93.469	-165.8660
730.000000	93.510	-165.7131
740.000000	93.549	-165.5951
750.000000	93.588	-165.4954
762.000000	93.627	-165.4252
775.000000	93.657	-165.2844
788.000000	93.701	-165.0898
800.000000	93.741	-164.9752
812.000000	93.776	-164.7951
825.000000	93.834	-164.5677
838.000000	93.904	-164.4698
850.000000	93.960	-164.5076
862.000000	94.002	-164.5205
875.000000	94.055	-164.5436
885.000000	94.091	-164.6321
900.000000	94.135	-164.7867
912.000000	94.163	-164.9805
925.000000	94.170	-165.3022
938.000000	94.126	-165.6284
950.000000	94.032	-165.6185
962.000000	93.933	-165.0461
975.000000	93.896	-163.9069
988.000000	93.968	-162.7612
1000.000000	94.092	-162.0699
1015.000000	94.259	-161.7378
1030.000000	94.388	-161.8558
1044.000000	94.452	-162.0412
1060.000000	94.493	-162.0073
1075.000000	94.549	-161.7850
1090.000000	94.630	-161.5735
1106.000000	94.737	-161.5553
1120.000000	94.810	-161.7585
1138.000000	94.859	-161.9915
1150.000000	94.879	-162.0436
1172.000000	94.930	-161.8882
1180.000000	94.962	-161.8447
1206.000000	95.040	-162.0187
1220.000000	95.048	-162.0361
1241.000000	95.068	-161.7316
1250.000000	95.095	-161.5502
1265.000000	95.159	-161.3535
1280.000000	95.217	-161.3391
1315.000000	95.272	-161.0383
1320.000000	95.287	-160.9108
1340.000000	95.383	-160.5486
1360.000000	95.469	-160.4900
1380.000000	95.522	-160.3912
1400.000000	95.575	-160.0688
1430.000000	95.736	-159.4182
1450.000000	95.884	-159.3416
1475.000000	96.032	-159.5212
1500.000000	96.163	-159.6783
1525.000000	96.282	-159.9230
1550.000000	96.391	-160.3907
1575.000000	96.447	-160.8441
1600.000000	96.497	-161.2009
1625.000000	96.513	-161.5588
1650.000000	96.513	-161.6149
1675.000000	96.524	-161.5566
1700.000000	96.539	-161.4279
1725.000000	96.553	-161.1210
1750.000000	96.604	-160.7635
1775.000000	96.660	-160.5012
1800.000000	96.726	-160.2692
1825.000000	96.774	-160.2318
1850.000000	96.775	-160.0214
1875.000000	96.787	-159.4675
1900.000000	96.826	-158.8342
1925.000000	96.864	-158.1099
1950.000000	96.925	-157.0552
1975.000000	97.072	-155.8604
2000.000000	97.285	-155.0869
2030.000000	97.515	-154.7128
2060.000000	97.719	-154.3367
2090.000000	97.939	-154.1183
2120.000000	98.133	-154.0927
2140.000000	98.246	-154.0475
2180.000000	98.470	-153.7529
2200.000000	98.600	-153.5054
2240.000000	98.911	-153.3643
2270.000000	99.097	-153.5325
2300.000000	99.276	-153.4083
2330.000000	99.489	-153.3531
2360.000000	99.680	-153.3929
2400.000000	99.964	-153.0594
2430.000000	100.240	-152.9741
2470.000000	100.606	-153.2651
2500.000000	100.881	-153.6573
2540.000000	101.223	-154.3870
2580.000000	101.567	-155.0886
2620.000000	101.934	-156.0594
2650.000000	102.193	-157.0399
2690.000000	102.500	-158.4795
2720.000000	102.705	-159.5552
2760.000000	102.963	-160.8309
2800.000000	103.252	-161.9537
2850.000000	103.668	-163.6233
2900.000000	104.096	-165.8983
2950.000000	104.471	-168.6564
3000.000000	104.806	-171.6333
3040.000000	105.050	-174.2115
3070.000000	105.210	-176.2831
3110.000000	105.385	-179.1464
3150.000000	105.521	177.9471
3200.000000	105.648	174.3474
3250.000000	105.751	170.6398
3300.000000	105.781	166.6796
3350.000000	105.723	162.9160
3400.000000	105.637	159.4244
3450.000000	105.539	155.8942
3500.000000	105.376	152.1892
3550.000000	105.122	148.6497
3600.000000	104.804	145.4792
3650.000000	104.443	142.6116
3700.000000	104.023	140.0358
3750.000000	103.533	137.9738
3820.000000	102.781	136.4304
3870.000000	102.262	136.2511
3950.000000	101.517	137.2150
4000.000000	101.112	138.6036
4060.000000	100.745	141.1620
4120.000000	100.601	144.3757
4180.000000	100.727	147.3874
4250.000000	101.147	149.7846
4310.000000	101.661	150.1697
4370.000000	102.132	148.6085
4440.000000	102.473	145.3560
4500.000000	102.602	142.0242
4550.000000	102.577	139.0870
4620.000000	102.342	135.5927
4680.000000	102.071	133.5241
4750.000000	101.746	131.7565
4820.000000	101.405	130.6693
4870.000000	101.184	130.3536
4940.000000	100.939	130.2930
5000.000000	100.794	130.4686
5080.000000	100.727	130.7595
5150.000000	100.773	130.5450
5220.000000	100.851	129.6459
5300.000000	100.915	127.8471
5380.000000	100.888	125.3947
5450.000000	100.750	123.1743
5520.000000	100.532	121.3373
5600.000000	100.251	119.9774
5700.000000	100.026	119.3245
5800.000000	100.109	118.0855
5900.000000	100.283	114.0255
6000.000000	100.120	107.1816
6080.000000	99.571	101.4288
6150.000000	98.809	97.5684
6220.000000	97.894	95.3799
6300.000000	96.804	94.8525
6400.000000	95.544	96.4657
6500.000000	94.496	99.6621
6600.000000	93.680	103.6897
6700.000000	93.071	107.9554
6800.000000	92.638	112.3853
6900.000000	92.394	116.6827
7000.000000	92.314	120.3478
7100.000000	92.315	123.0243
7200.000000	92.294	124.8063
7300.000000	92.183	126.2645
7400.000000	92.011	128.1251
7500.000000	91.879	130.6086
7620.000000	91.904	133.8983
7750.000000	92.174	136.5009
7880.000000	92.526	137.0653
8000.000000	92.721	135.8002
8120.000000	92.660	133.7792
8250.000000	92.318	132.4581
8380.000000	91.959	133.0828
8500.000000	91.908	134.0315
8620.000000	92.053	132.7900
8750.000000	91.943	127.9659
8850.000000	91.385	123.5356
9000.000000	89.786	120.5200
9120.000000	88.189	123.0450
9250.000000	86.550	130.3647
9380.000000	85.332	141.4882
9500.000000	84.874	153.6147
9620.000000	85.128	165.3616
9750.000000	85.967	175.9903
9880.000000	87.120	-176.1335
10000.000000	88.303	-171.3330
10150.000000	89.791	-168.4225
10300.000000	91.181	-168.4781
10440.000000	92.337	-170.7316
10600.000000	93.466	-175.4925
10750.000000	94.312	177.9854
10900.000000	94.874	169.3098
11060.000000	95.007	157.7849
11200.000000	94.568	146.5995
11380.000000	93.034	134.1874
11500.000000	91.418	130.0688
11720.000000	87.877	135.4147
11800.000000	86.729	141.2802
12060.000000	85.718	165.4177
12200.000000	86.815	173.2521
12410.000000	88.235	171.2289
12500.000000	88.330	166.9357
12650.000000	87.579	161.0754
12800.000000	85.963	164.6008
13150.000000	86.639	-168.6039
13200.000000	87.096	-168.1036
13400.000000	88.238	-172.5819
13600.000000	88.522	-179.2554
13800.000000	88.431	174.8135
14000.000000	88.169	168.8566
14300.000000	87.626	157.3671
14500.000000	87.213	144.6592
14750.000000	86.413	115.7640
15000.000000	84.694	68.7216
15250.000000	82.637	17.8348
15500.000000	82.701	-16.8641
15750.000000	84.867	-33.8910
16000.000000	87.629	-43.3255
16250.000000	90.574	-51.8279
16500.000000	93.344	-65.1458
16750.000000	94.926	-87.0979
17000.000000	94.773	-110.3039
17250.000000	93.463	-125.5483
17500.000000	92.039	-134.4109
17750.000000	90.796	-142.9116
18000.000000	89.088	-151.4453
18250.000000	86.373	-152.4698
18500.000000	83.078	-139.7024
18750.000000	81.060	-117.8303
19000.000000	81.584	-98.0985
19250.000000	83.151	-86.5510
19500.000000	84.564	-82.6442
19750.000000	85.449	-83.3678
