* Measurement data measured by REW V5.20.13
* Source: EXCL: Headset (KM-HIFI-384KHZ), MICROPHONE (Master Volume), 0, volume: 1.000
* Format: 256k Log Swept Sine, 1 sweep at -20.0 dBFS with no timing reference
* Dated: Nov 11, 2023 11:08:55 PM
* REW Settings:
*  C-weighting compensation: Off
*  Target level: 75.0 dB
* Note: ; 
* Measurement: Poke DCA Aeon 2 Noire L
* Smoothing: 1/24 octave
* Frequency Step: 1/48 octave
* Start Frequency: 20.000 Hz
*
* Freq(Hz)	SPL(dB)	Phase(degrees)
20.000000	89.030	-62.3980
20.299999	89.057	-63.4899
20.600000	89.093	-64.5474
20.900000	89.139	-65.5970
21.200001	89.197	-66.6660
21.400000	89.239	-67.4021
21.799999	89.330	-68.9437
22.000000	89.376	-69.7516
22.400000	89.461	-71.4311
22.700001	89.515	-72.7172
23.000000	89.557	-73.9846
23.299999	89.592	-75.1933
23.600000	89.621	-76.3209
24.000000	89.664	-77.6977
24.299999	89.704	-78.6723
24.700001	89.767	-79.9702
25.000000	89.814	-80.9841
25.400000	89.866	-82.3888
25.799999	89.892	-83.7668
26.200001	89.897	-84.9926
26.500000	89.898	-85.7710
26.900000	89.914	-86.6530
27.200001	89.944	-87.2761
27.600000	90.006	-88.1810
28.000000	90.075	-89.2628
28.500000	90.141	-90.8342
29.000000	90.170	-92.4547
29.500000	90.176	-93.9627
30.000000	90.182	-95.3486
30.400000	90.194	-96.4261
30.700001	90.206	-97.2386
31.100000	90.224	-98.3344
31.500000	90.242	-99.4406
32.000000	90.263	-100.8318
32.500000	90.279	-102.2199
33.000000	90.289	-103.5658
33.500000	90.295	-104.8362
34.000000	90.306	-106.0545
34.500000	90.318	-107.2817
35.000000	90.319	-108.5280
35.500000	90.305	-109.7273
36.000000	90.280	-110.8195
36.500000	90.254	-111.8175
37.000000	90.229	-112.7670
37.500000	90.205	-113.6800
38.200001	90.180	-114.9292
38.700001	90.166	-115.8974
39.500000	90.110	-117.6220
40.000000	90.041	-118.5962
40.599998	89.956	-119.5127
41.200001	89.899	-120.3584
41.799999	89.841	-121.3153
42.500000	89.734	-122.3335
43.099998	89.640	-122.9041
43.700001	89.569	-123.3672
44.400002	89.483	-123.8921
45.000000	89.397	-124.0983
45.500000	89.348	-124.0486
46.200001	89.332	-123.9642
46.799999	89.329	-124.0470
47.500000	89.308	-124.0561
48.200001	89.308	-123.8386
48.700001	89.331	-123.6785
49.400002	89.372	-123.5363
50.000000	89.409	-123.3952
50.799999	89.480	-123.1856
51.500000	89.557	-123.1183
52.200001	89.633	-123.1253
53.000000	89.732	-123.1524
53.799999	89.854	-123.3408
54.500000	89.964	-123.7159
55.200001	90.066	-124.2182
56.000000	90.174	-124.8640
57.000000	90.304	-125.6763
58.000000	90.454	-126.4050
59.000000	90.626	-127.3947
60.000000	90.720	-128.5894
60.799999	90.747	-129.1289
61.500000	90.796	-129.2950
62.200001	90.882	-129.5014
63.000000	90.986	-129.9933
64.000000	91.081	-130.8006
65.000000	91.161	-131.6006
66.000000	91.246	-132.4516
67.000000	91.339	-133.3283
68.000000	91.457	-134.2765
69.000000	91.576	-135.4070
70.000000	91.673	-136.5953
71.000000	91.744	-137.7664
72.000000	91.786	-138.8469
73.000000	91.812	-139.8245
74.000000	91.824	-140.8025
75.000000	91.814	-141.7242
76.199997	91.805	-142.7248
77.500000	91.799	-143.9058
78.800003	91.739	-144.9474
80.000000	91.680	-145.2146
81.199997	91.706	-145.0415
82.500000	91.829	-144.9379
83.800003	91.995	-145.2367
85.000000	92.148	-145.8365
86.199997	92.293	-146.6940
87.500000	92.430	-147.8041
88.500000	92.528	-148.7180
90.000000	92.670	-150.1634
91.199997	92.780	-151.4418
92.500000	92.877	-152.9822
93.800003	92.942	-154.5758
95.000000	92.980	-156.0388
96.199997	93.000	-157.5162
97.500000	92.997	-159.1321
98.800003	92.963	-160.7086
100.000000	92.910	-162.0619
101.500000	92.826	-163.5797
103.000000	92.736	-164.9049
104.400002	92.651	-165.9366
106.000000	92.567	-166.8980
107.500000	92.504	-167.7092
109.000000	92.443	-168.5210
110.599998	92.378	-169.3640
112.000000	92.330	-170.0671
113.800003	92.289	-170.9026
115.000000	92.275	-171.4120
117.199997	92.269	-172.3246
118.000000	92.268	-172.6727
120.599998	92.280	-174.2435
122.000000	92.255	-175.4729
124.099998	92.175	-177.3776
125.000000	92.133	-178.1769
126.500000	92.053	-179.4551
128.000000	91.956	179.3522
131.500000	91.654	176.9869
132.000000	91.605	176.7007
134.000000	91.408	175.6326
136.000000	91.204	174.6723
138.000000	90.993	173.8456
140.000000	90.776	173.1859
143.000000	90.442	172.5973
145.000000	90.227	172.4003
147.500000	89.961	172.1910
150.000000	89.695	171.9692
152.500000	89.393	171.7861
155.000000	89.031	172.1453
157.500000	88.659	173.4678
160.000000	88.366	175.7202
162.500000	88.229	178.2345
165.000000	88.218	-179.4846
167.500000	88.308	-177.3118
170.000000	88.506	-175.5467
172.500000	88.754	-174.9128
175.000000	88.944	-175.1325
177.500000	89.067	-175.1676
180.000000	89.130	-175.0450
182.500000	89.063	-175.0150
185.000000	88.973	-174.7510
187.500000	88.962	-174.3696
190.000000	89.000	-173.8349
192.500000	89.051	-173.1523
195.000000	89.130	-172.4728
197.500000	89.244	-171.9429
200.000000	89.368	-171.5533
203.000000	89.512	-171.2273
206.000000	89.659	-171.0940
209.000000	89.813	-171.0869
212.000000	89.966	-171.1423
214.000000	90.065	-171.2320
218.000000	90.244	-171.5582
220.000000	90.329	-171.7619
224.000000	90.505	-172.2353
227.000000	90.634	-172.7076
230.000000	90.750	-173.2685
233.000000	90.851	-173.8628
236.000000	90.938	-174.4673
240.000000	91.043	-175.3214
243.000000	91.118	-176.0290
247.000000	91.194	-176.8730
250.000000	91.258	-177.3046
254.000000	91.375	-177.9921
258.000000	91.482	-178.9717
262.000000	91.564	179.9368
265.000000	91.608	179.1130
269.000000	91.652	178.0385
272.000000	91.677	177.2609
276.000000	91.701	176.2593
280.000000	91.715	175.2755
285.000000	91.718	174.0839
290.000000	91.717	172.9189
295.000000	91.705	171.7445
300.000000	91.684	170.5970
304.000000	91.656	169.8557
307.000000	91.632	169.3571
311.000000	91.601	168.6849
315.000000	91.572	168.0090
320.000000	91.536	167.1490
325.000000	91.492	166.3203
330.000000	91.438	165.5601
335.000000	91.381	164.8309
340.000000	91.314	164.1436
345.000000	91.242	163.5549
350.000000	91.177	163.0236
355.000000	91.108	162.5079
360.000000	91.042	162.0294
365.000000	90.987	161.6350
370.000000	90.928	161.2840
375.000000	90.866	160.9621
382.000000	90.788	160.6116
387.000000	90.743	160.4304
395.000000	90.695	160.0664
400.000000	90.667	159.7575
406.000000	90.621	159.3500
412.000000	90.564	158.9729
418.000000	90.496	158.6895
425.000000	90.400	158.4203
431.000000	90.320	158.3241
437.000000	90.259	158.3687
444.000000	90.214	158.5254
450.000000	90.207	158.6681
455.000000	90.216	158.7163
462.000000	90.230	158.6069
468.000000	90.233	158.3775
475.000000	90.222	158.0225
482.000000	90.205	157.6974
487.000000	90.193	157.5482
494.000000	90.166	157.3505
500.000000	90.136	157.1640
508.000000	90.094	156.9409
515.000000	90.060	156.7758
522.000000	90.025	156.6192
530.000000	89.982	156.4899
538.000000	89.933	156.4386
545.000000	89.895	156.3772
552.000000	89.863	156.3259
560.000000	89.826	156.3539
570.000000	89.789	156.4931
580.000000	89.776	156.5925
590.000000	89.758	156.6165
600.000000	89.734	156.6767
608.000000	89.728	156.6981
615.000000	89.726	156.7055
622.000000	89.722	156.7076
630.000000	89.715	156.6857
640.000000	89.701	156.6202
650.000000	89.678	156.5394
660.000000	89.649	156.4755
670.000000	89.619	156.4118
680.000000	89.577	156.3444
690.000000	89.521	156.3167
700.000000	89.451	156.3754
710.000000	89.365	156.5189
720.000000	89.272	156.7970
730.000000	89.194	157.2318
740.000000	89.127	157.8115
750.000000	89.072	158.5103
762.000000	89.028	159.4406
775.000000	89.006	160.4428
788.000000	89.017	161.4049
800.000000	89.047	162.2129
812.000000	89.080	162.9070
825.000000	89.113	163.5254
838.000000	89.133	164.0346
850.000000	89.136	164.4755
862.000000	89.124	164.9173
875.000000	89.083	165.3727
885.000000	89.024	165.7174
900.000000	88.867	166.3122
912.000000	88.641	167.1979
925.000000	88.275	169.5829
938.000000	88.026	174.8092
950.000000	88.359	-179.1261
962.000000	89.111	-175.4396
975.000000	89.826	-174.9009
988.000000	90.271	-175.6870
1000.000000	90.537	-176.3395
1015.000000	90.790	-176.7929
1030.000000	91.004	-177.0078
1044.000000	91.179	-177.1364
1060.000000	91.348	-177.2166
1075.000000	91.485	-177.1715
1090.000000	91.618	-176.9886
1106.000000	91.762	-176.6430
1120.000000	91.897	-176.2547
1138.000000	92.088	-175.7567
1150.000000	92.223	-175.4660
1172.000000	92.479	-175.0245
1180.000000	92.574	-174.8869
1206.000000	92.895	-174.6497
1220.000000	93.056	-174.7576
1241.000000	93.252	-175.0448
1250.000000	93.325	-175.1481
1265.000000	93.435	-175.2683
1280.000000	93.533	-175.3288
1315.000000	93.734	-175.2969
1320.000000	93.762	-175.2760
1340.000000	93.869	-175.1689
1360.000000	93.968	-175.0027
1380.000000	94.066	-174.7814
1400.000000	94.165	-174.5190
1430.000000	94.311	-174.0579
1450.000000	94.410	-173.7380
1475.000000	94.533	-173.3345
1500.000000	94.648	-172.9102
1525.000000	94.761	-172.4880
1550.000000	94.866	-172.0732
1575.000000	94.957	-171.6737
1600.000000	95.024	-171.2354
1625.000000	95.072	-170.6095
1650.000000	95.124	-169.7537
1675.000000	95.189	-168.7678
1700.000000	95.266	-167.7330
1725.000000	95.349	-166.6426
1750.000000	95.436	-165.4377
1775.000000	95.539	-164.0765
1800.000000	95.678	-162.6031
1825.000000	95.863	-161.1841
1850.000000	96.078	-159.9731
1875.000000	96.301	-159.0065
1900.000000	96.516	-158.2461
1925.000000	96.714	-157.6271
1950.000000	96.888	-157.0678
1975.000000	97.043	-156.4982
2000.000000	97.183	-155.8753
2030.000000	97.345	-155.0364
2060.000000	97.507	-154.1069
2090.000000	97.671	-153.1126
2120.000000	97.837	-152.0682
2140.000000	97.948	-151.3326
2180.000000	98.183	-149.7022
2200.000000	98.314	-148.8023
2240.000000	98.622	-146.9136
2270.000000	98.902	-145.5337
2300.000000	99.224	-144.3262
2330.000000	99.578	-143.4205
2360.000000	99.941	-142.9081
2400.000000	100.392	-142.8223
2430.000000	100.679	-143.0506
2470.000000	100.985	-143.3783
2500.000000	101.178	-143.4472
2540.000000	101.435	-143.2810
2580.000000	101.718	-142.9569
2620.000000	102.041	-142.6441
2650.000000	102.314	-142.5452
2690.000000	102.704	-142.7842
2720.000000	102.992	-143.3247
2760.000000	103.335	-144.4582
2800.000000	103.618	-145.8043
2850.000000	103.928	-147.5571
2900.000000	104.213	-149.5987
2950.000000	104.439	-152.1348
3000.000000	104.561	-155.0395
3040.000000	104.569	-157.4493
3070.000000	104.521	-159.2026
3110.000000	104.392	-161.3488
3150.000000	104.199	-163.1433
3200.000000	103.905	-164.7054
3250.000000	103.625	-165.5561
3300.000000	103.406	-166.1517
3350.000000	103.221	-166.9424
3400.000000	103.008	-167.9908
3450.000000	102.730	-169.0636
3500.000000	102.387	-169.8432
3550.000000	102.019	-170.1483
3600.000000	101.675	-170.1282
3650.000000	101.359	-170.1254
3700.000000	101.030	-170.3400
3750.000000	100.633	-170.6775
3820.000000	99.889	-170.5309
3870.000000	99.251	-169.0732
3950.000000	98.393	-163.6371
4000.000000	98.179	-159.3990
4060.000000	98.228	-155.1969
4120.000000	98.411	-152.5781
4180.000000	98.585	-151.2116
4250.000000	98.733	-150.5711
4310.000000	98.810	-150.6565
4370.000000	98.814	-151.1928
4440.000000	98.707	-151.9623
4500.000000	98.545	-152.3773
4550.000000	98.397	-152.4150
4620.000000	98.236	-152.0882
4680.000000	98.175	-151.8092
4750.000000	98.165	-151.9366
4820.000000	98.150	-152.5842
4870.000000	98.114	-153.1598
4940.000000	98.046	-153.7738
5000.000000	98.023	-154.0265
5080.000000	98.104	-154.2952
5150.000000	98.268	-154.8240
5220.000000	98.488	-155.7214
5300.000000	98.787	-157.0770
5380.000000	99.153	-158.6399
5450.000000	99.551	-160.2657
5520.000000	100.020	-162.3214
5600.000000	100.621	-165.4080
5700.000000	101.399	-170.8346
5800.000000	101.996	-178.2732
5900.000000	102.207	173.5522
6000.000000	102.082	166.5804
6080.000000	101.869	162.3669
6150.000000	101.669	159.5176
6220.000000	101.480	157.1974
6300.000000	101.274	154.8961
6400.000000	100.976	152.2711
6500.000000	100.551	150.1559
6600.000000	99.976	149.2370
6700.000000	99.314	150.0466
6800.000000	98.663	152.6196
6900.000000	98.086	156.7676
7000.000000	97.634	162.4582
7100.000000	97.417	169.5421
7200.000000	97.545	177.1779
7300.000000	97.987	-175.7412
7400.000000	98.648	-169.6606
7500.000000	99.489	-164.8950
7620.000000	100.584	-161.7701
7750.000000	101.605	-161.5597
7880.000000	102.284	-163.8043
8000.000000	102.441	-166.9577
8120.000000	102.086	-168.3872
8250.000000	101.606	-165.1629
8380.000000	101.801	-159.6160
8500.000000	102.467	-156.7218
8620.000000	103.179	-156.5582
8750.000000	103.927	-158.4299
8850.000000	104.528	-161.3758
9000.000000	105.429	-169.5837
9120.000000	105.937	179.1181
9250.000000	105.864	161.8273
9380.000000	104.784	142.3006
9500.000000	102.826	126.8010
9620.000000	100.183	116.2854
9750.000000	97.032	109.3913
9880.000000	93.983	103.8571
10000.000000	91.305	97.0309
10150.000000	87.878	80.7079
10300.000000	84.135	44.8402
10440.000000	82.386	-9.5309
10600.000000	85.719	-67.7615
10750.000000	89.576	-98.8491
10900.000000	92.836	-115.8115
11060.000000	95.669	-129.2936
11200.000000	97.565	-140.0863
11380.000000	99.412	-151.2643
11500.000000	100.529	-156.5346
11720.000000	102.622	-164.4751
11800.000000	103.353	-167.6459
12060.000000	105.279	179.6538
12200.000000	105.936	171.7045
12410.000000	106.388	159.0959
12500.000000	106.366	153.5806
12650.000000	106.005	144.7857
12800.000000	105.275	137.3564
13150.000000	102.991	123.9639
13200.000000	102.639	121.6331
13400.000000	100.916	109.3036
13600.000000	98.194	92.7292
13800.000000	94.043	71.6153
14000.000000	88.581	37.6979
14300.000000	86.859	-29.8576
14500.000000	90.611	-61.7711
14750.000000	93.117	-100.7219
15000.000000	92.842	-156.8027
15250.000000	91.451	125.0994
15500.000000	91.983	48.3339
15750.000000	92.662	-5.7098
16000.000000	92.109	-43.6173
16250.000000	91.621	-75.3540
16500.000000	93.055	-105.4299
16750.000000	95.554	-134.0322
17000.000000	97.372	-158.8828
17250.000000	98.127	-176.3633
17500.000000	98.140	174.6904
17750.000000	97.826	172.4192
18000.000000	97.375	174.3024
18250.000000	96.891	178.9998
18500.000000	96.470	-175.5095
18750.000000	95.887	-170.5133
19000.000000	94.928	-164.6565
19250.000000	93.709	-156.7921
19500.000000	92.446	-148.4143
19750.000000	91.172	-141.8506
