* Measurement data measured by REW V5.20.13
* Source: EXCL: Headset (KM-HIFI-384KHZ), MICROPHONE (Master Volume), 0, volume: 1.000
* Format: 256k Log Swept Sine, 1 sweep at -20.0 dBFS with no timing reference
* Dated: Nov 11, 2023 11:05:51 PM
* REW Settings:
*  C-weighting compensation: Off
*  Target level: 75.0 dB
* Note: ; 
* Measurement: Poke HD-800s L
* Smoothing: 1/24 octave
* Frequency Step: 1/48 octave
* Start Frequency: 20.000 Hz
*
* Freq(Hz)	SPL(dB)	Phase(degrees)
20.000000	84.026	-80.0666
20.299999	84.141	-81.1157
20.600000	84.253	-82.1506
20.900000	84.360	-83.1688
21.200001	84.464	-84.1665
21.400000	84.531	-84.8192
21.799999	84.663	-86.0969
22.000000	84.727	-86.7231
22.400000	84.853	-87.9542
22.700001	84.944	-88.8601
23.000000	85.033	-89.7505
23.299999	85.120	-90.6243
23.600000	85.205	-91.4821
24.000000	85.317	-92.6042
24.299999	85.398	-93.4343
24.700001	85.504	-94.5291
25.000000	85.580	-95.3401
25.400000	85.677	-96.4011
25.799999	85.769	-97.4290
26.200001	85.858	-98.4198
26.500000	85.923	-99.1422
26.900000	86.010	-100.0862
27.200001	86.074	-100.7855
27.600000	86.157	-101.7096
28.000000	86.237	-102.6218
28.500000	86.331	-103.7384
29.000000	86.422	-104.8258
29.500000	86.508	-105.8888
30.000000	86.591	-106.9328
30.400000	86.655	-107.7552
30.700001	86.701	-108.3641
31.100000	86.760	-109.1648
31.500000	86.816	-109.9523
32.000000	86.884	-110.9156
32.500000	86.947	-111.8531
33.000000	87.009	-112.7656
33.500000	87.068	-113.6579
34.000000	87.125	-114.5354
34.500000	87.179	-115.3978
35.000000	87.228	-116.2397
35.500000	87.275	-117.0543
36.000000	87.318	-117.8395
36.500000	87.361	-118.5999
37.000000	87.402	-119.3459
37.500000	87.441	-120.0853
38.200001	87.487	-121.0975
38.700001	87.513	-121.7778
39.500000	87.553	-122.7507
40.000000	87.582	-123.2996
40.599998	87.625	-123.9358
41.200001	87.675	-124.5823
41.799999	87.728	-125.2574
42.500000	87.790	-126.0892
43.099998	87.841	-126.8381
43.700001	87.888	-127.6179
44.400002	87.932	-128.5610
45.000000	87.958	-129.3749
45.500000	87.970	-130.0280
46.200001	87.978	-130.8756
46.799999	87.980	-131.5441
47.500000	87.978	-132.2723
48.200001	87.971	-132.9297
48.700001	87.966	-133.3455
49.400002	87.966	-133.8737
50.000000	87.972	-134.3226
50.799999	87.985	-134.9647
51.500000	87.990	-135.5569
52.200001	87.988	-136.1496
53.000000	87.976	-136.8121
53.799999	87.950	-137.4304
54.500000	87.916	-137.8907
55.200001	87.874	-138.2457
56.000000	87.824	-138.5084
57.000000	87.769	-138.6349
58.000000	87.730	-138.6052
59.000000	87.705	-138.4116
60.000000	87.717	-138.0795
60.799999	87.756	-137.8547
61.500000	87.799	-137.7218
62.200001	87.849	-137.6189
63.000000	87.915	-137.5338
64.000000	88.007	-137.5046
65.000000	88.104	-137.5459
66.000000	88.204	-137.6369
67.000000	88.309	-137.7765
68.000000	88.418	-137.9791
69.000000	88.528	-138.2613
70.000000	88.636	-138.6112
71.000000	88.741	-139.0227
72.000000	88.840	-139.4960
73.000000	88.933	-140.0060
74.000000	89.020	-140.5416
75.000000	89.100	-141.1053
76.199997	89.188	-141.7981
77.500000	89.274	-142.5685
78.800003	89.349	-143.3442
80.000000	89.412	-144.0591
81.199997	89.468	-144.7797
82.500000	89.518	-145.5476
83.800003	89.558	-146.2685
85.000000	89.592	-146.8939
86.199997	89.622	-147.4987
87.500000	89.651	-148.1306
88.500000	89.671	-148.6017
90.000000	89.698	-149.2875
91.199997	89.716	-149.8119
92.500000	89.735	-150.3484
93.800003	89.752	-150.8538
95.000000	89.767	-151.2917
96.199997	89.783	-151.7051
97.500000	89.802	-152.1396
98.800003	89.820	-152.5676
100.000000	89.838	-152.9576
101.500000	89.859	-153.4379
103.000000	89.882	-153.9119
104.400002	89.902	-154.3541
106.000000	89.925	-154.8579
107.500000	89.946	-155.3280
109.000000	89.965	-155.8006
110.599998	89.984	-156.3127
112.000000	89.997	-156.7659
113.800003	90.010	-157.3427
115.000000	90.016	-157.7173
117.199997	90.023	-158.3713
118.000000	90.025	-158.5980
120.599998	90.026	-159.3230
122.000000	90.021	-159.7018
124.099998	90.010	-160.2407
125.000000	90.004	-160.4630
126.500000	89.993	-160.8201
128.000000	89.979	-161.1520
131.500000	89.937	-161.7758
132.000000	89.931	-161.8456
134.000000	89.908	-162.0742
136.000000	89.892	-162.2205
138.000000	89.888	-162.3026
140.000000	89.901	-162.3752
143.000000	89.942	-162.6021
145.000000	89.972	-162.8367
147.500000	90.007	-163.1890
150.000000	90.037	-163.5912
152.500000	90.059	-164.0261
155.000000	90.075	-164.4679
157.500000	90.084	-164.8875
160.000000	90.089	-165.2798
162.500000	90.092	-165.6585
165.000000	90.094	-166.0263
167.500000	90.093	-166.3819
170.000000	90.088	-166.7181
172.500000	90.081	-167.0185
175.000000	90.074	-167.2733
177.500000	90.069	-167.4818
180.000000	90.067	-167.6719
182.500000	90.070	-167.8879
185.000000	90.076	-168.1165
187.500000	90.084	-168.3474
190.000000	90.091	-168.5810
192.500000	90.097	-168.8121
195.000000	90.103	-169.0409
197.500000	90.110	-169.2759
200.000000	90.117	-169.5187
203.000000	90.123	-169.8157
206.000000	90.127	-170.1125
209.000000	90.128	-170.4054
212.000000	90.128	-170.6932
214.000000	90.127	-170.8809
218.000000	90.122	-171.2300
220.000000	90.120	-171.3928
224.000000	90.118	-171.7269
227.000000	90.114	-171.9868
230.000000	90.106	-172.2274
233.000000	90.098	-172.4414
236.000000	90.092	-172.6458
240.000000	90.086	-172.9211
243.000000	90.081	-173.1243
247.000000	90.072	-173.3890
250.000000	90.064	-173.5803
254.000000	90.054	-173.8094
258.000000	90.045	-174.0320
262.000000	90.036	-174.2571
265.000000	90.027	-174.4171
269.000000	90.015	-174.6073
272.000000	90.008	-174.7358
276.000000	90.001	-174.9073
280.000000	89.996	-175.0922
285.000000	89.988	-175.3383
290.000000	89.975	-175.5929
295.000000	89.958	-175.8116
300.000000	89.945	-175.9927
304.000000	89.938	-176.1434
307.000000	89.930	-176.2578
311.000000	89.920	-176.3972
315.000000	89.913	-176.5375
320.000000	89.905	-176.7740
325.000000	89.883	-177.0231
330.000000	89.851	-177.2069
335.000000	89.818	-177.2861
340.000000	89.795	-177.3225
345.000000	89.779	-177.3389
350.000000	89.771	-177.3871
355.000000	89.762	-177.4698
360.000000	89.749	-177.5393
365.000000	89.738	-177.5977
370.000000	89.727	-177.6620
375.000000	89.716	-177.7404
382.000000	89.693	-177.8240
387.000000	89.675	-177.8127
395.000000	89.662	-177.7507
400.000000	89.659	-177.7361
406.000000	89.661	-177.7567
412.000000	89.662	-177.8436
418.000000	89.654	-177.8858
425.000000	89.651	-177.8863
431.000000	89.647	-177.9218
437.000000	89.634	-177.9272
444.000000	89.631	-177.8448
450.000000	89.640	-177.8243
455.000000	89.646	-177.8526
462.000000	89.649	-177.8881
468.000000	89.656	-177.9120
475.000000	89.662	-177.9966
482.000000	89.659	-178.0721
487.000000	89.657	-178.0894
494.000000	89.660	-178.1227
500.000000	89.663	-178.1888
508.000000	89.657	-178.2841
515.000000	89.646	-178.3044
522.000000	89.644	-178.2843
530.000000	89.643	-178.3253
538.000000	89.633	-178.3295
545.000000	89.631	-178.2675
552.000000	89.638	-178.2491
560.000000	89.640	-178.2695
570.000000	89.643	-178.2405
580.000000	89.648	-178.2791
590.000000	89.641	-178.2631
600.000000	89.645	-178.1741
608.000000	89.652	-178.1364
615.000000	89.657	-178.0914
622.000000	89.668	-178.0408
630.000000	89.683	-178.0214
640.000000	89.698	-178.0133
650.000000	89.716	-177.9832
660.000000	89.740	-177.9970
670.000000	89.760	-178.0418
680.000000	89.779	-178.0930
690.000000	89.797	-178.1322
700.000000	89.823	-178.1984
710.000000	89.845	-178.3350
720.000000	89.858	-178.4670
730.000000	89.872	-178.5943
740.000000	89.880	-178.7533
750.000000	89.880	-178.8597
762.000000	89.896	-178.9248
775.000000	89.920	-179.1493
788.000000	89.920	-179.4498
800.000000	89.907	-179.6144
812.000000	89.906	-179.7145
825.000000	89.913	-179.8772
838.000000	89.919	179.8474
850.000000	89.901	179.5303
862.000000	89.867	179.3135
875.000000	89.821	179.1398
885.000000	89.771	179.1565
900.000000	89.731	179.5262
912.000000	89.753	179.8546
925.000000	89.821	179.9589
938.000000	89.894	179.6638
950.000000	89.937	179.1071
962.000000	89.932	178.3779
975.000000	89.865	177.7340
988.000000	89.791	177.4543
1000.000000	89.754	177.2319
1015.000000	89.705	176.6583
1030.000000	89.586	175.9684
1044.000000	89.421	175.6564
1060.000000	89.227	175.7316
1075.000000	89.045	176.1747
1090.000000	88.914	177.0729
1106.000000	88.865	177.9033
1120.000000	88.829	178.3037
1138.000000	88.768	178.8096
1150.000000	88.727	179.0225
1172.000000	88.560	179.5864
1180.000000	88.495	-179.9113
1206.000000	88.465	-177.9335
1220.000000	88.520	-177.4467
1241.000000	88.512	-177.3278
1250.000000	88.471	-177.2371
1265.000000	88.369	-176.8664
1280.000000	88.259	-176.0461
1315.000000	88.175	-173.6990
1320.000000	88.165	-173.4004
1340.000000	88.120	-172.0769
1360.000000	88.087	-170.3959
1380.000000	88.137	-168.3505
1400.000000	88.296	-166.5242
1430.000000	88.612	-164.8213
1450.000000	88.778	-164.3325
1475.000000	88.912	-163.5138
1500.000000	89.109	-162.4247
1525.000000	89.335	-161.9102
1550.000000	89.500	-161.5772
1575.000000	89.674	-161.0798
1600.000000	89.875	-160.7858
1625.000000	90.063	-160.8801
1650.000000	90.183	-161.1998
1675.000000	90.238	-161.2993
1700.000000	90.276	-160.8470
1725.000000	90.401	-160.0612
1750.000000	90.593	-159.6456
1775.000000	90.778	-159.7070
1800.000000	90.918	-160.0248
1825.000000	91.008	-160.4075
1850.000000	91.039	-160.6459
1875.000000	91.047	-160.3519
1900.000000	91.125	-159.7033
1925.000000	91.255	-159.2938
1950.000000	91.374	-159.0576
1975.000000	91.503	-158.7540
2000.000000	91.663	-158.6425
2030.000000	91.827	-158.8995
2060.000000	91.925	-159.2853
2090.000000	91.954	-159.3151
2120.000000	92.010	-158.6058
2140.000000	92.124	-157.9911
2180.000000	92.439	-157.6735
2200.000000	92.551	-157.8881
2240.000000	92.719	-157.9492
2270.000000	92.872	-157.9998
2300.000000	92.993	-158.1249
2330.000000	93.113	-158.0560
2360.000000	93.232	-157.9388
2400.000000	93.424	-157.3693
2430.000000	93.637	-156.9106
2470.000000	94.025	-156.4752
2500.000000	94.404	-156.8261
2540.000000	94.853	-158.9452
2580.000000	95.012	-162.0004
2620.000000	94.921	-163.9222
2650.000000	94.850	-164.1873
2690.000000	94.908	-163.7224
2720.000000	95.083	-163.3888
2760.000000	95.439	-163.7596
2800.000000	95.781	-165.4414
2850.000000	96.032	-168.6557
2900.000000	96.038	-171.8472
2950.000000	95.958	-174.2513
3000.000000	95.813	-176.3442
3040.000000	95.665	-177.3926
3070.000000	95.599	-178.0096
3110.000000	95.541	-179.2408
3150.000000	95.406	178.8218
3200.000000	94.888	176.8527
3250.000000	94.193	178.1705
3300.000000	93.809	-178.1145
3350.000000	93.810	-174.8737
3400.000000	93.797	-172.2566
3450.000000	93.912	-168.8048
3500.000000	94.232	-165.4044
3550.000000	94.793	-162.5629
3600.000000	95.472	-161.4022
3650.000000	96.075	-161.8273
3700.000000	96.528	-162.7429
3750.000000	96.988	-163.2886
3820.000000	97.770	-165.0319
3870.000000	98.288	-167.6750
3950.000000	98.788	-173.4809
4000.000000	98.914	-176.9198
4060.000000	99.001	179.1281
4120.000000	98.947	175.2014
4180.000000	98.776	171.8725
4250.000000	98.487	168.8149
4310.000000	98.202	166.9492
4370.000000	97.914	165.6997
4440.000000	97.588	164.9288
4500.000000	97.345	164.8787
4550.000000	97.186	165.1168
4620.000000	97.029	165.7186
4680.000000	96.949	166.4043
4750.000000	96.919	167.4348
4820.000000	96.997	168.6227
4870.000000	97.118	169.3287
4940.000000	97.347	170.0610
5000.000000	97.600	170.4847
5080.000000	98.038	170.6705
5150.000000	98.531	170.1320
5220.000000	99.086	168.4683
5300.000000	99.699	164.8416
5380.000000	100.160	159.2553
5450.000000	100.313	153.0865
5520.000000	100.150	146.5579
5600.000000	99.557	140.2918
5700.000000	98.462	136.6341
5800.000000	97.548	137.2272
5900.000000	97.165	139.2092
6000.000000	97.184	139.7560
6080.000000	97.257	138.7272
6150.000000	97.277	136.9156
6220.000000	97.193	134.4901
6300.000000	96.917	131.5834
6400.000000	96.334	129.0522
6500.000000	95.681	128.3909
6600.000000	95.118	129.0011
6700.000000	94.678	130.4560
6800.000000	94.414	132.4482
6900.000000	94.351	134.3827
7000.000000	94.460	135.7253
7100.000000	94.682	136.2153
7200.000000	94.998	135.7924
7300.000000	95.406	134.1019
7400.000000	95.849	130.4318
7500.000000	96.150	124.1841
7620.000000	96.019	114.1506
7750.000000	95.140	103.2457
7880.000000	93.638	94.8893
8000.000000	91.893	90.5405
8120.000000	90.042	89.4328
8250.000000	88.143	90.6266
8380.000000	86.465	92.0204
8500.000000	84.892	91.0525
8620.000000	82.673	90.9655
8750.000000	79.311	114.8643
8850.000000	79.035	158.9012
9000.000000	83.401	-164.2463
9120.000000	85.763	-169.8716
9250.000000	86.840	177.3400
9380.000000	86.911	166.9390
9500.000000	86.372	160.4695
9620.000000	85.415	157.4026
9750.000000	84.093	158.4904
9880.000000	82.766	164.1739
10000.000000	81.808	172.3947
10150.000000	81.078	-174.5905
10300.000000	81.236	-157.5060
10440.000000	83.152	-140.0771
10600.000000	86.437	-129.3644
10750.000000	88.795	-132.4247
10900.000000	90.140	-141.2703
11060.000000	90.868	-150.9119
11200.000000	91.100	-159.2467
11380.000000	90.608	-168.9884
11500.000000	89.762	-171.9120
11720.000000	88.342	-166.5925
11800.000000	88.272	-163.1236
12060.000000	89.232	-156.5419
12200.000000	89.875	-156.1497
12410.000000	90.852	-157.7714
12500.000000	91.284	-159.4060
12650.000000	91.956	-163.8100
12800.000000	92.444	-170.6203
13150.000000	91.795	168.6367
13200.000000	91.458	166.4067
13400.000000	89.846	161.8596
13600.000000	88.513	161.7409
13800.000000	87.733	160.5327
14000.000000	86.879	156.1129
14300.000000	84.219	154.6240
14500.000000	82.544	164.1338
14750.000000	82.804	168.7394
15000.000000	82.299	153.6661
15250.000000	79.247	130.1187
15500.000000	74.250	79.6683
15750.000000	74.431	-6.1584
16000.000000	79.084	-58.8271
16250.000000	82.114	-80.7791
16500.000000	83.739	-95.3900
16750.000000	84.370	-107.3785
17000.000000	84.334	-116.4830
17250.000000	83.966	-123.3362
17500.000000	83.274	-129.1256
17750.000000	82.154	-132.4982
18000.000000	80.825	-132.2175
18250.000000	79.582	-129.1733
18500.000000	78.508	-124.5745
18750.000000	77.575	-118.8162
19000.000000	76.776	-112.1830
19250.000000	76.058	-104.5424
19500.000000	75.540	-95.2588
19750.000000	75.494	-86.5226
