* Measurement data measured by REW V5.20.13
* Source: EXCL: Headset (KM-HIFI-384KHZ), MICROPHONE (Master Volume), 0, volume: 1.000
* Format: 256k Log Swept Sine, 1 sweep at -13.0 dBFS with no timing reference
* Dated: Aug 12, 2023 12:10:45 PM
* REW Settings:
*  C-weighting compensation: Off
*  Target level: 75.0 dB
* Note: 
* Measurement: Aug 12
* Smoothing: 1/24 octave
* Frequency Step: 1/48 octave
* Start Frequency: 20.000 Hz
*
* Freq(Hz)	SPL(dB)	Phase(degrees)
20.000000	108.155	-177.2557
20.299999	108.106	-177.7468
20.600000	108.054	-178.1196
20.900000	108.009	-178.3475
21.200001	107.983	-178.4405
21.400000	107.983	-178.4655
21.799999	108.024	-178.5399
22.000000	108.063	-178.6508
22.400000	108.161	-179.1266
22.700001	108.233	-179.7238
23.000000	108.288	179.5140
23.299999	108.318	178.6700
23.600000	108.324	177.8217
24.000000	108.302	176.7825
24.299999	108.273	176.1059
24.700001	108.230	175.3248
25.000000	108.198	174.7951
25.400000	108.158	174.1217
25.799999	108.115	173.4677
26.200001	108.069	172.8411
26.500000	108.033	172.3960
26.900000	107.986	171.8341
27.200001	107.951	171.4287
27.600000	107.906	170.8994
28.000000	107.863	170.3789
28.500000	107.809	169.7465
29.000000	107.758	169.1355
29.500000	107.711	168.5327
30.000000	107.664	167.9290
30.400000	107.626	167.4527
30.700001	107.597	167.1062
31.100000	107.558	166.6633
31.500000	107.519	166.2403
32.000000	107.471	165.7308
32.500000	107.423	165.2375
33.000000	107.374	164.7637
33.500000	107.325	164.3105
34.000000	107.276	163.8699
34.500000	107.228	163.4330
35.000000	107.178	162.9987
35.500000	107.127	162.5723
36.000000	107.076	162.1570
36.500000	107.025	161.7515
37.000000	106.975	161.3527
37.500000	106.924	160.9603
38.200001	106.854	160.4273
38.700001	106.804	160.0631
39.500000	106.727	159.5097
40.000000	106.679	159.1782
40.599998	106.622	158.7921
41.200001	106.566	158.4187
41.799999	106.510	158.0566
42.500000	106.443	157.6459
43.099998	106.386	157.3049
43.700001	106.328	156.9749
44.400002	106.262	156.5974
45.000000	106.205	156.2749
45.500000	106.157	156.0088
46.200001	106.089	155.6477
46.799999	106.032	155.3503
47.500000	105.967	155.0106
48.200001	105.903	154.6733
48.700001	105.856	154.4365
49.400002	105.791	154.1194
50.000000	105.735	153.8630
50.799999	105.663	153.5336
51.500000	105.601	153.2489
52.200001	105.539	152.9718
53.000000	105.467	152.6725
53.799999	105.396	152.3909
54.500000	105.335	152.1570
55.200001	105.275	151.9341
56.000000	105.206	151.6895
57.000000	105.120	151.3993
58.000000	105.036	151.1198
59.000000	104.952	150.8394
60.000000	104.866	150.5734
60.799999	104.798	150.3726
61.500000	104.740	150.2034
62.200001	104.683	150.0417
63.000000	104.620	149.8622
64.000000	104.542	149.6401
65.000000	104.464	149.4274
66.000000	104.388	149.2269
67.000000	104.312	149.0343
68.000000	104.237	148.8452
69.000000	104.162	148.6593
70.000000	104.087	148.4826
71.000000	104.013	148.3201
72.000000	103.939	148.1694
73.000000	103.867	148.0261
74.000000	103.795	147.8911
75.000000	103.723	147.7659
76.199997	103.638	147.6275
77.500000	103.546	147.4912
78.800003	103.456	147.3693
80.000000	103.374	147.2639
81.199997	103.294	147.1624
82.500000	103.208	147.0609
83.800003	103.125	146.9661
85.000000	103.048	146.8837
86.199997	102.973	146.8108
87.500000	102.892	146.7397
88.500000	102.831	146.6872
90.000000	102.739	146.6183
91.199997	102.667	146.5708
92.500000	102.590	146.5212
93.800003	102.512	146.4825
95.000000	102.442	146.4577
96.199997	102.373	146.4398
97.500000	102.298	146.4283
98.800003	102.224	146.4251
100.000000	102.156	146.4287
101.500000	102.072	146.4408
103.000000	101.988	146.4644
104.400002	101.911	146.4980
106.000000	101.825	146.5459
107.500000	101.744	146.6026
109.000000	101.664	146.6730
110.599998	101.580	146.7671
112.000000	101.509	146.8655
113.800003	101.420	147.0169
115.000000	101.363	147.1344
117.199997	101.267	147.3854
118.000000	101.236	147.4847
120.599998	101.148	147.8000
122.000000	101.108	147.9464
124.099998	101.053	148.1105
125.000000	101.031	148.1573
126.500000	100.994	148.2050
128.000000	100.955	148.2213
131.500000	100.852	148.1971
132.000000	100.836	148.1925
134.000000	100.768	148.1821
136.000000	100.696	148.1913
138.000000	100.624	148.2207
140.000000	100.550	148.2674
143.000000	100.441	148.3647
145.000000	100.369	148.4445
147.500000	100.280	148.5577
150.000000	100.195	148.6846
152.500000	100.111	148.8238
155.000000	100.027	148.9761
157.500000	99.946	149.1379
160.000000	99.866	149.3018
162.500000	99.789	149.4686
165.000000	99.713	149.6432
167.500000	99.639	149.8267
170.000000	99.566	150.0191
172.500000	99.494	150.2198
175.000000	99.423	150.4250
177.500000	99.353	150.6335
180.000000	99.283	150.8484
182.500000	99.215	151.0732
185.000000	99.148	151.3091
187.500000	99.082	151.5538
190.000000	99.017	151.8072
192.500000	98.952	152.0715
195.000000	98.888	152.3485
197.500000	98.825	152.6381
200.000000	98.763	152.9435
203.000000	98.691	153.3418
206.000000	98.621	153.7870
209.000000	98.555	154.2918
212.000000	98.500	154.8641
214.000000	98.472	155.2804
218.000000	98.450	156.1422
220.000000	98.459	156.5349
224.000000	98.504	157.0854
227.000000	98.542	157.2347
230.000000	98.564	157.1993
233.000000	98.563	157.0750
236.000000	98.540	156.9477
240.000000	98.488	156.8503
243.000000	98.441	156.8442
247.000000	98.374	156.9116
250.000000	98.323	157.0067
254.000000	98.258	157.1770
258.000000	98.194	157.3781
262.000000	98.133	157.5978
265.000000	98.090	157.7719
269.000000	98.034	158.0160
272.000000	97.993	158.2075
276.000000	97.941	158.4698
280.000000	97.891	158.7359
285.000000	97.831	159.0707
290.000000	97.774	159.4055
295.000000	97.720	159.7402
300.000000	97.668	160.0754
304.000000	97.629	160.3442
307.000000	97.600	160.5461
311.000000	97.563	160.8148
315.000000	97.526	161.0813
320.000000	97.483	161.4111
325.000000	97.441	161.7359
330.000000	97.400	162.0592
335.000000	97.361	162.3823
340.000000	97.322	162.7031
345.000000	97.285	163.0255
350.000000	97.249	163.3466
355.000000	97.214	163.6623
360.000000	97.180	163.9713
365.000000	97.148	164.2767
370.000000	97.116	164.5820
375.000000	97.086	164.8874
382.000000	97.045	165.3091
387.000000	97.017	165.6060
395.000000	96.974	166.0761
400.000000	96.949	166.3663
406.000000	96.920	166.7116
412.000000	96.891	167.0527
418.000000	96.864	167.3910
425.000000	96.833	167.7820
431.000000	96.807	168.1119
437.000000	96.782	168.4411
444.000000	96.754	168.8235
450.000000	96.731	169.1474
455.000000	96.713	169.4156
462.000000	96.687	169.7866
468.000000	96.666	170.0999
475.000000	96.643	170.4611
482.000000	96.621	170.8192
487.000000	96.604	171.0732
494.000000	96.582	171.4256
500.000000	96.564	171.7249
508.000000	96.541	172.1208
515.000000	96.521	172.4649
522.000000	96.503	172.8055
530.000000	96.482	173.1927
538.000000	96.463	173.5782
545.000000	96.446	173.9117
552.000000	96.430	174.2438
560.000000	96.412	174.6210
570.000000	96.391	175.0884
580.000000	96.371	175.5512
590.000000	96.352	176.0079
600.000000	96.333	176.4639
608.000000	96.319	176.8300
615.000000	96.307	177.1490
622.000000	96.296	177.4667
630.000000	96.283	177.8290
640.000000	96.267	178.2801
650.000000	96.252	178.7307
660.000000	96.237	179.1817
670.000000	96.224	179.6309
680.000000	96.211	-179.9198
690.000000	96.198	-179.4682
700.000000	96.186	-179.0131
710.000000	96.176	-178.5573
720.000000	96.166	-178.0985
730.000000	96.157	-177.6354
740.000000	96.148	-177.1682
750.000000	96.139	-176.6929
762.000000	96.127	-176.0990
775.000000	96.117	-175.3909
788.000000	96.125	-174.5803
800.000000	96.169	-173.9187
812.000000	96.210	-173.5629
825.000000	96.209	-173.2188
838.000000	96.198	-172.6932
850.000000	96.196	-172.1392
862.000000	96.200	-171.5742
875.000000	96.209	-170.9530
885.000000	96.219	-170.4702
900.000000	96.239	-169.7480
912.000000	96.259	-169.1792
925.000000	96.285	-168.5742
938.000000	96.314	-167.9764
950.000000	96.343	-167.4314
962.000000	96.375	-166.8966
975.000000	96.413	-166.3305
988.000000	96.453	-165.7785
1000.000000	96.492	-165.2837
1015.000000	96.544	-164.6869
1030.000000	96.598	-164.1130
1044.000000	96.650	-163.5966
1060.000000	96.711	-163.0321
1075.000000	96.770	-162.5303
1090.000000	96.830	-162.0522
1106.000000	96.895	-161.5665
1120.000000	96.951	-161.1622
1138.000000	97.023	-160.6658
1150.000000	97.070	-160.3481
1172.000000	97.156	-159.7911
1180.000000	97.186	-159.5955
1206.000000	97.285	-158.9764
1220.000000	97.337	-158.6518
1241.000000	97.415	-158.1805
1250.000000	97.448	-157.9845
1265.000000	97.503	-157.6647
1280.000000	97.557	-157.3533
1315.000000	97.677	-156.6533
1320.000000	97.693	-156.5526
1340.000000	97.758	-156.1375
1360.000000	97.823	-155.7031
1380.000000	97.892	-155.2567
1400.000000	97.964	-154.8060
1430.000000	98.080	-154.1457
1450.000000	98.160	-153.7236
1475.000000	98.263	-153.2179
1500.000000	98.368	-152.7386
1525.000000	98.475	-152.2836
1550.000000	98.582	-151.8494
1575.000000	98.689	-151.4330
1600.000000	98.796	-151.0278
1625.000000	98.904	-150.6287
1650.000000	99.013	-150.2346
1675.000000	99.124	-149.8435
1700.000000	99.239	-149.4567
1725.000000	99.356	-149.0790
1750.000000	99.478	-148.7154
1775.000000	99.605	-148.3712
1800.000000	99.735	-148.0481
1825.000000	99.870	-147.7479
1850.000000	100.008	-147.4751
1875.000000	100.151	-147.2371
1900.000000	100.297	-147.0382
1925.000000	100.447	-146.8810
1950.000000	100.598	-146.7669
1975.000000	100.752	-146.6977
2000.000000	100.906	-146.6758
2030.000000	101.094	-146.7134
2060.000000	101.281	-146.8202
2090.000000	101.468	-146.9950
2120.000000	101.655	-147.2415
2140.000000	101.778	-147.4480
2180.000000	102.022	-147.9636
2200.000000	102.141	-148.2732
2240.000000	102.373	-149.0012
2270.000000	102.540	-149.6438
2300.000000	102.698	-150.3640
2330.000000	102.846	-151.1565
2360.000000	102.982	-152.0145
2400.000000	103.144	-153.2420
2430.000000	103.250	-154.2117
2470.000000	103.367	-155.5485
2500.000000	103.438	-156.5658
2540.000000	103.510	-157.9101
2580.000000	103.558	-159.2080
2620.000000	103.589	-160.4326
2650.000000	103.604	-161.2969
2690.000000	103.619	-162.3940
2720.000000	103.629	-163.2031
2760.000000	103.638	-164.3077
2800.000000	103.634	-165.4572
2850.000000	103.599	-166.9008
2900.000000	103.528	-168.2417
2950.000000	103.431	-169.3933
3000.000000	103.322	-170.3295
3040.000000	103.233	-170.9326
3070.000000	103.169	-171.3108
3110.000000	103.088	-171.7344
3150.000000	103.015	-172.0897
3200.000000	102.938	-172.4810
3250.000000	102.874	-172.8709
3300.000000	102.817	-173.3177
3350.000000	102.756	-173.8556
3400.000000	102.674	-174.4570
3450.000000	102.560	-175.0015
3500.000000	102.420	-175.3161
3550.000000	102.278	-175.2985
3600.000000	102.166	-175.0001
3650.000000	102.097	-174.5864
3700.000000	102.071	-174.2296
3750.000000	102.071	-174.0383
3820.000000	102.082	-174.1070
3870.000000	102.078	-174.3596
3950.000000	102.026	-174.9353
4000.000000	101.962	-175.2780
4060.000000	101.859	-175.5546
4120.000000	101.742	-175.6147
4180.000000	101.627	-175.4413
4250.000000	101.514	-174.9981
4310.000000	101.446	-174.4966
4370.000000	101.404	-173.9613
4440.000000	101.382	-173.3538
4500.000000	101.382	-172.8579
4550.000000	101.395	-172.4540
4620.000000	101.436	-171.9027
4680.000000	101.500	-171.4819
4750.000000	101.609	-171.1468
4820.000000	101.746	-171.0843
4870.000000	101.850	-171.2416
4940.000000	101.992	-171.7465
5000.000000	102.099	-172.4146
5080.000000	102.206	-173.5592
5150.000000	102.262	-174.6983
5220.000000	102.281	-175.8626
5300.000000	102.266	-177.1100
5380.000000	102.228	-178.1781
5450.000000	102.195	-178.9396
5520.000000	102.180	-179.5743
5600.000000	102.211	179.7209
5700.000000	102.342	178.4139
5800.000000	102.532	175.7736
5900.000000	102.583	171.1041
6000.000000	102.218	165.2853
6080.000000	101.556	161.5696
6150.000000	100.794	160.0212
6220.000000	99.996	160.2196
6300.000000	99.179	162.1251
6400.000000	98.410	165.9586
6500.000000	97.911	170.4512
6600.000000	97.627	175.1179
6700.000000	97.520	179.7768
6800.000000	97.574	-175.6882
6900.000000	97.781	-171.4072
7000.000000	98.131	-167.5119
7100.000000	98.622	-164.1274
7200.000000	99.254	-161.4325
7300.000000	100.017	-159.6821
7400.000000	100.888	-159.1827
7500.000000	101.830	-160.2783
7620.000000	102.953	-164.2755
7750.000000	103.915	-172.5234
7880.000000	104.271	175.9644
8000.000000	103.910	165.0340
8120.000000	102.990	156.4055
8250.000000	101.661	150.7957
8380.000000	100.282	148.5721
8500.000000	99.120	148.6009
8620.000000	98.112	149.9111
8750.000000	97.217	152.2418
8850.000000	96.680	154.1989
9000.000000	96.020	156.7397
9120.000000	95.541	158.6150
9250.000000	95.055	160.5533
9380.000000	94.577	162.4294
9500.000000	94.125	164.2523
9620.000000	93.666	166.3149
9750.000000	93.179	168.9305
9880.000000	92.728	172.0104
10000.000000	92.370	175.2641
10150.000000	92.039	179.7294
10300.000000	91.857	-175.6327
10440.000000	91.831	-171.3503
10600.000000	91.976	-166.7982
10750.000000	92.266	-163.1679
10900.000000	92.677	-160.4207
11060.000000	93.195	-158.7122
11200.000000	93.667	-158.3506
11380.000000	94.222	-159.5632
11500.000000	94.496	-161.3677
11720.000000	94.675	-165.8706
11800.000000	94.622	-167.5571
12060.000000	94.076	-171.7065
12200.000000	93.633	-172.6284
12410.000000	92.933	-172.1223
12500.000000	92.652	-171.2772
12650.000000	92.243	-169.1845
12800.000000	91.935	-166.4318
13150.000000	91.715	-158.7540
13200.000000	91.749	-157.6463
13400.000000	92.055	-153.6203
13600.000000	92.623	-150.8949
13800.000000	93.370	-150.4705
14000.000000	94.105	-153.2897
14300.000000	94.578	-163.5901
14500.000000	94.163	-171.8633
14750.000000	92.891	-179.1627
15000.000000	91.289	178.5450
15250.000000	89.847	179.9305
15500.000000	88.797	-176.9418
15750.000000	88.130	-173.8752
16000.000000	87.599	-171.4491
16250.000000	87.031	-167.6460
16500.000000	86.861	-160.9352
16750.000000	87.481	-154.4520
17000.000000	88.530	-150.4942
17250.000000	89.930	-148.1670
17500.000000	91.853	-148.3327
17750.000000	93.969	-154.4788
18000.000000	95.485	-168.8326
18250.000000	95.864	172.3135
18500.000000	95.302	155.3665
18750.000000	94.423	141.1194
19000.000000	93.468	126.0968
19250.000000	92.097	109.1334
19500.000000	89.961	93.3710
19750.000000	87.185	82.6079
