* Measurement data measured by REW V5.20.13
* Source: EXCL: Headset (KM-HIFI-384KHZ), MICROPHONE (Master Volume), 0, volume: 1.000
* Format: 256k Log Swept Sine, 1 sweep at -13.0 dBFS with no timing reference
* Dated: Aug 12, 2023 11:43:26 PM
* REW Settings:
*  C-weighting compensation: Off
*  Target level: 75.0 dB
* Note: ; 
* Measurement: Dunu-Titan-S-Ted L
* Smoothing: 1/24 octave
* Frequency Step: 1/48 octave
* Start Frequency: 20.000 Hz
*
* Freq(Hz)	SPL(dB)	Phase(degrees)
20.000000	95.478	-132.4564
20.299999	95.521	-133.2823
20.600000	95.561	-134.1028
20.900000	95.597	-134.9085
21.200001	95.631	-135.6920
21.400000	95.653	-136.2009
21.799999	95.695	-137.1931
22.000000	95.716	-137.6803
22.400000	95.756	-138.6428
22.700001	95.783	-139.3540
23.000000	95.808	-140.0500
23.299999	95.830	-140.7236
23.600000	95.850	-141.3694
24.000000	95.876	-142.1881
24.299999	95.898	-142.7789
24.700001	95.928	-143.5532
25.000000	95.952	-144.1337
25.400000	95.982	-144.9132
25.799999	96.009	-145.6954
26.200001	96.032	-146.4708
26.500000	96.046	-147.0420
26.900000	96.061	-147.7827
27.200001	96.071	-148.3190
27.600000	96.083	-149.0068
28.000000	96.096	-149.6699
28.500000	96.114	-150.4880
29.000000	96.132	-151.3209
29.500000	96.143	-152.1605
30.000000	96.146	-152.9620
30.400000	96.146	-153.5559
30.700001	96.148	-153.9800
31.100000	96.154	-154.5374
31.500000	96.160	-155.1035
32.000000	96.162	-155.8118
32.500000	96.159	-156.4732
33.000000	96.158	-157.0687
33.500000	96.165	-157.6475
34.000000	96.174	-158.2646
34.500000	96.175	-158.8973
35.000000	96.168	-159.4669
35.500000	96.166	-159.9448
36.000000	96.175	-160.3958
36.500000	96.192	-160.8948
37.000000	96.205	-161.4334
37.500000	96.211	-161.9427
38.200001	96.223	-162.5606
38.700001	96.243	-163.0005
39.500000	96.278	-163.8203
40.000000	96.291	-164.3867
40.599998	96.296	-165.0845
41.200001	96.285	-165.7795
41.799999	96.260	-166.4207
42.500000	96.222	-167.0394
43.099998	96.196	-167.4869
43.700001	96.180	-167.9254
44.400002	96.168	-168.4682
45.000000	96.161	-168.9652
45.500000	96.155	-169.3989
46.200001	96.145	-170.0142
46.799999	96.134	-170.5219
47.500000	96.121	-171.0749
48.200001	96.109	-171.5790
48.700001	96.101	-171.9119
49.400002	96.090	-172.3593
50.000000	96.077	-172.7289
50.799999	96.056	-173.1955
51.500000	96.035	-173.6221
52.200001	96.004	-174.0768
53.000000	95.963	-174.5688
53.799999	95.933	-175.1138
54.500000	95.907	-175.6750
55.200001	95.890	-176.2342
56.000000	95.899	-177.0902
57.000000	95.832	-178.6237
58.000000	95.651	-179.1150
59.000000	95.637	-178.6203
60.000000	95.725	-178.8220
60.799999	95.746	-179.2007
61.500000	95.746	-179.4463
62.200001	95.737	-179.6850
63.000000	95.711	-179.9475
64.000000	95.672	179.7393
65.000000	95.629	179.3362
66.000000	95.581	178.8737
67.000000	95.535	178.4227
68.000000	95.502	177.9989
69.000000	95.478	177.5726
70.000000	95.452	177.1917
71.000000	95.425	176.8870
72.000000	95.399	176.6180
73.000000	95.372	176.3346
74.000000	95.339	176.0063
75.000000	95.300	175.6395
76.199997	95.247	175.2239
77.500000	95.202	174.8395
78.800003	95.169	174.4283
80.000000	95.137	174.0766
81.199997	95.099	173.7286
82.500000	95.044	173.4298
83.800003	94.996	173.2061
85.000000	94.961	172.9182
86.199997	94.920	172.5808
87.500000	94.875	172.2452
88.500000	94.846	172.0140
90.000000	94.806	171.6691
91.199997	94.769	171.4196
92.500000	94.725	171.1981
93.800003	94.682	170.9644
95.000000	94.635	170.7316
96.199997	94.588	170.5330
97.500000	94.547	170.3097
98.800003	94.509	170.0676
100.000000	94.475	169.8635
101.500000	94.432	169.6420
103.000000	94.387	169.4519
104.400002	94.344	169.2716
106.000000	94.289	169.0668
107.500000	94.242	168.9150
109.000000	94.204	168.7526
110.599998	94.160	168.5662
112.000000	94.117	168.4149
113.800003	94.060	168.2236
115.000000	94.024	168.0782
117.199997	93.971	167.8137
118.000000	93.959	167.7032
120.599998	93.890	167.2662
122.000000	93.829	167.2218
124.099998	93.758	167.2508
125.000000	93.732	167.2267
126.500000	93.691	167.1349
128.000000	93.653	167.0120
131.500000	93.575	166.7514
132.000000	93.563	166.7182
134.000000	93.511	166.6154
136.000000	93.458	166.5537
138.000000	93.406	166.5015
140.000000	93.353	166.4595
143.000000	93.274	166.4060
145.000000	93.227	166.3690
147.500000	93.173	166.2877
150.000000	93.120	166.2230
152.500000	93.066	166.1758
155.000000	93.007	166.1466
157.500000	92.946	166.1063
160.000000	92.894	166.0635
162.500000	92.844	166.0425
165.000000	92.785	166.1050
167.500000	92.726	166.2068
170.000000	92.681	166.1899
172.500000	92.638	166.0811
175.000000	92.592	166.0423
177.500000	92.543	166.1002
180.000000	92.493	166.1559
182.500000	92.441	166.1626
185.000000	92.390	166.1704
187.500000	92.342	166.2090
190.000000	92.296	166.2733
192.500000	92.250	166.3491
195.000000	92.202	166.4263
197.500000	92.155	166.5060
200.000000	92.109	166.6104
203.000000	92.056	166.7833
206.000000	92.005	167.0078
209.000000	91.960	167.2629
212.000000	91.922	167.5224
214.000000	91.903	167.6804
218.000000	91.874	167.9364
220.000000	91.867	168.0571
224.000000	91.863	168.2437
227.000000	91.854	168.2927
230.000000	91.836	168.3019
233.000000	91.814	168.2953
236.000000	91.787	168.2950
240.000000	91.743	168.3264
243.000000	91.712	168.3588
247.000000	91.670	168.4116
250.000000	91.638	168.4677
254.000000	91.593	168.5605
258.000000	91.549	168.6696
262.000000	91.507	168.7891
265.000000	91.475	168.8823
269.000000	91.433	169.0155
272.000000	91.402	169.1245
276.000000	91.364	169.2775
280.000000	91.327	169.4349
285.000000	91.282	169.6360
290.000000	91.241	169.8486
295.000000	91.202	170.0760
300.000000	91.164	170.3041
304.000000	91.136	170.4896
307.000000	91.117	170.6263
311.000000	91.094	170.7945
315.000000	91.072	170.9446
320.000000	91.042	171.1273
325.000000	91.011	171.3085
330.000000	90.981	171.4901
335.000000	90.951	171.6768
340.000000	90.921	171.8691
345.000000	90.891	172.0636
350.000000	90.863	172.2586
355.000000	90.835	172.4619
360.000000	90.807	172.6576
365.000000	90.781	172.8524
370.000000	90.757	173.0629
375.000000	90.733	173.2792
382.000000	90.701	173.5648
387.000000	90.679	173.7700
395.000000	90.646	174.1055
400.000000	90.625	174.3172
406.000000	90.600	174.5660
412.000000	90.577	174.8121
418.000000	90.555	175.0562
425.000000	90.530	175.3422
431.000000	90.510	175.5926
437.000000	90.491	175.8450
444.000000	90.470	176.1384
450.000000	90.452	176.3835
455.000000	90.438	176.5848
462.000000	90.418	176.8718
468.000000	90.403	177.1192
475.000000	90.385	177.4077
482.000000	90.367	177.6954
487.000000	90.356	177.9007
494.000000	90.340	178.1895
500.000000	90.328	178.4369
508.000000	90.312	178.7686
515.000000	90.298	179.0490
522.000000	90.285	179.3287
530.000000	90.272	179.6621
538.000000	90.259	179.9916
545.000000	90.249	-179.7204
552.000000	90.240	-179.4349
560.000000	90.229	-179.1088
570.000000	90.217	-178.6951
580.000000	90.206	-178.2859
590.000000	90.197	-177.8763
600.000000	90.189	-177.4560
608.000000	90.183	-177.1169
615.000000	90.178	-176.8212
622.000000	90.174	-176.5256
630.000000	90.170	-176.1871
640.000000	90.167	-175.7646
650.000000	90.165	-175.3398
660.000000	90.165	-174.9122
670.000000	90.166	-174.4781
680.000000	90.169	-174.0441
690.000000	90.173	-173.6090
700.000000	90.179	-173.1685
710.000000	90.186	-172.7255
720.000000	90.195	-172.2833
730.000000	90.205	-171.8408
740.000000	90.218	-171.3965
750.000000	90.232	-170.9481
762.000000	90.252	-170.4072
775.000000	90.276	-169.8199
788.000000	90.303	-169.2322
800.000000	90.332	-168.6893
812.000000	90.365	-168.1474
825.000000	90.403	-167.5659
838.000000	90.446	-166.9873
850.000000	90.489	-166.4560
862.000000	90.535	-165.9357
875.000000	90.589	-165.3819
885.000000	90.634	-164.9617
900.000000	90.706	-164.3441
912.000000	90.767	-163.8672
925.000000	90.837	-163.3681
938.000000	90.910	-162.8907
950.000000	90.980	-162.4702
962.000000	91.054	-162.0690
975.000000	91.137	-161.6599
988.000000	91.223	-161.2754
1000.000000	91.305	-160.9453
1015.000000	91.410	-160.5710
1030.000000	91.516	-160.2360
1044.000000	91.617	-159.9590
1060.000000	91.734	-159.6894
1075.000000	91.844	-159.4828
1090.000000	91.954	-159.3160
1106.000000	92.070	-159.1824
1120.000000	92.171	-159.0985
1138.000000	92.298	-159.0313
1150.000000	92.382	-159.0132
1172.000000	92.532	-159.0336
1180.000000	92.585	-159.0551
1206.000000	92.753	-159.1684
1220.000000	92.842	-159.2558
1241.000000	92.973	-159.4248
1250.000000	93.028	-159.5152
1265.000000	93.118	-159.6939
1280.000000	93.203	-159.9035
1315.000000	93.385	-160.4647
1320.000000	93.409	-160.5498
1340.000000	93.500	-160.8972
1360.000000	93.584	-161.2507
1380.000000	93.662	-161.6059
1400.000000	93.736	-161.9610
1430.000000	93.837	-162.4912
1450.000000	93.900	-162.8427
1475.000000	93.973	-163.2767
1500.000000	94.040	-163.7074
1525.000000	94.102	-164.1288
1550.000000	94.160	-164.5394
1575.000000	94.214	-164.9438
1600.000000	94.264	-165.3397
1625.000000	94.311	-165.7253
1650.000000	94.354	-166.1008
1675.000000	94.395	-166.4653
1700.000000	94.433	-166.8196
1725.000000	94.468	-167.1636
1750.000000	94.501	-167.4977
1775.000000	94.532	-167.8203
1800.000000	94.560	-168.1305
1825.000000	94.587	-168.4286
1850.000000	94.612	-168.7144
1875.000000	94.635	-168.9885
1900.000000	94.657	-169.2511
1925.000000	94.678	-169.5005
1950.000000	94.698	-169.7368
1975.000000	94.718	-169.9606
2000.000000	94.736	-170.1721
2030.000000	94.758	-170.4075
2060.000000	94.779	-170.6249
2090.000000	94.800	-170.8263
2120.000000	94.821	-171.0109
2140.000000	94.835	-171.1247
2180.000000	94.863	-171.3304
2200.000000	94.877	-171.4225
2240.000000	94.906	-171.5885
2270.000000	94.930	-171.6974
2300.000000	94.955	-171.7932
2330.000000	94.981	-171.8763
2360.000000	95.009	-171.9485
2400.000000	95.049	-172.0284
2430.000000	95.081	-172.0764
2470.000000	95.128	-172.1285
2500.000000	95.165	-172.1598
2540.000000	95.219	-172.1932
2580.000000	95.277	-172.2204
2620.000000	95.341	-172.2446
2650.000000	95.392	-172.2619
2690.000000	95.465	-172.2870
2720.000000	95.524	-172.3100
2760.000000	95.608	-172.3487
2800.000000	95.698	-172.4005
2850.000000	95.822	-172.4918
2900.000000	95.956	-172.6208
2950.000000	96.102	-172.7990
3000.000000	96.259	-173.0378
3040.000000	96.394	-173.2791
3070.000000	96.500	-173.4957
3110.000000	96.647	-173.8377
3150.000000	96.802	-174.2467
3200.000000	97.006	-174.8654
3250.000000	97.219	-175.6211
3300.000000	97.442	-176.5317
3350.000000	97.671	-177.6160
3400.000000	97.904	-178.8923
3450.000000	98.141	179.6216
3500.000000	98.378	177.9094
3550.000000	98.613	175.9429
3600.000000	98.843	173.6775
3650.000000	99.060	171.0557
3700.000000	99.250	168.0402
3750.000000	99.395	164.6386
3820.000000	99.496	159.3436
3870.000000	99.480	155.3073
3950.000000	99.294	148.7048
4000.000000	99.077	144.6515
4060.000000	98.725	140.0201
4120.000000	98.284	135.7624
4180.000000	97.771	131.9670
4250.000000	97.107	128.1819
4310.000000	96.500	125.4984
4370.000000	95.873	123.3100
4440.000000	95.130	121.3409
4500.000000	94.495	120.1099
4550.000000	93.973	119.3682
4620.000000	93.259	118.6977
4680.000000	92.663	118.4303
4750.000000	91.990	118.4321
4820.000000	91.344	118.7263
4870.000000	90.899	119.0911
4940.000000	90.300	119.7859
5000.000000	89.808	120.5277
5080.000000	89.182	121.6957
5150.000000	88.662	122.8566
5220.000000	88.165	124.1188
5300.000000	87.624	125.6575
5380.000000	87.107	127.2747
5450.000000	86.671	128.7421
5520.000000	86.243	130.2630
5600.000000	85.760	132.0987
5700.000000	85.165	134.6258
5800.000000	84.596	137.4854
5900.000000	84.070	140.6578
6000.000000	83.603	144.0390
6080.000000	83.273	146.8029
6150.000000	83.011	149.2288
6220.000000	82.770	151.6570
6300.000000	82.520	154.4336
6400.000000	82.241	157.8964
6500.000000	81.997	161.3524
6600.000000	81.786	164.7942
6700.000000	81.606	168.2111
6800.000000	81.453	171.6128
6900.000000	81.324	174.9996
7000.000000	81.215	178.3828
7100.000000	81.123	-178.1932
7200.000000	81.051	-174.6937
7300.000000	81.008	-171.0967
7400.000000	81.001	-167.4104
7500.000000	81.038	-163.6861
7620.000000	81.138	-159.2509
7750.000000	81.295	-154.5484
7880.000000	81.507	-149.7696
8000.000000	81.770	-145.3669
8120.000000	82.092	-141.0324
8250.000000	82.505	-136.4139
8380.000000	82.989	-131.8818
8500.000000	83.502	-127.7915
8620.000000	84.081	-123.8138
8750.000000	84.791	-119.6633
8850.000000	85.403	-116.6097
9000.000000	86.444	-112.3274
9120.000000	87.402	-109.2633
9250.000000	88.590	-106.5034
9380.000000	89.956	-104.6422
9500.000000	91.380	-104.1504
9620.000000	92.931	-105.4426
9750.000000	94.632	-109.7730
9880.000000	96.106	-118.0040
10000.000000	96.997	-128.8508
10150.000000	97.241	-143.9485
10300.000000	96.610	-156.1562
10440.000000	95.607	-162.6140
10600.000000	94.506	-164.7621
10750.000000	93.884	-163.6629
10900.000000	93.812	-161.6832
11060.000000	94.271	-160.7448
11200.000000	94.927	-162.1414
11380.000000	95.795	-167.5274
11500.000000	96.263	-173.1484
11720.000000	96.715	173.1381
11800.000000	96.707	167.2719
12060.000000	95.838	147.0316
12200.000000	94.805	137.2101
12410.000000	92.686	126.4203
12500.000000	91.659	123.4280
12650.000000	89.906	120.3894
12800.000000	88.197	119.3430
13150.000000	84.679	122.0162
13200.000000	84.238	122.7920
13400.000000	82.629	126.5427
13600.000000	81.251	131.0770
13800.000000	80.084	136.1429
14000.000000	79.115	141.5684
14300.000000	78.010	150.1183
14500.000000	77.492	155.9539
14750.000000	77.068	163.2124
15000.000000	76.856	170.2890
15250.000000	76.822	177.1991
15500.000000	76.975	-176.0460
15750.000000	77.353	-169.6204
16000.000000	77.998	-164.0277
16250.000000	78.900	-160.1621
16500.000000	79.947	-159.3041
16750.000000	80.838	-162.7931
17000.000000	81.129	-170.3679
17250.000000	80.516	-178.5312
17500.000000	79.103	177.2483
17750.000000	77.321	178.3813
18000.000000	75.541	-176.5020
18250.000000	73.906	-169.5067
18500.000000	72.326	-162.6465
18750.000000	70.538	-156.8209
19000.000000	68.298	-151.7286
19250.000000	65.508	-147.0445
19500.000000	62.160	-143.1569
19750.000000	58.327	-140.4360
