* Measurement data measured by REW V5.20.13
* Source: Headset (KM-HIFI-384KHZ), MICROPHONE (Master Volume), R, volume: 0.610
* Format: 256k Log Swept Sine, 1 sweep at -13.0 dBFS with no timing reference
* Dated: Aug 6, 2023 9:55:40 PM
* REW Settings:
*  C-weighting compensation: Off
*  Target level: 75.0 dB
* Note: 
* Measurement: Aug 6
* Smoothing: 1/24 octave
* Frequency Step: 1/48 octave
* Start Frequency: 20.000 Hz
*
* Freq(Hz)	SPL(dB)	Phase(degrees)
20.000000	103.206	43.4742
20.299999	103.234	42.6642
20.600000	103.261	41.8883
20.900000	103.287	41.1470
21.200001	103.314	40.4317
21.400000	103.333	39.9623
21.799999	103.372	39.0338
22.000000	103.391	38.5725
22.400000	103.429	37.6579
22.700001	103.456	36.9841
23.000000	103.482	36.3239
23.299999	103.507	35.6754
23.600000	103.532	35.0356
24.000000	103.562	34.1936
24.299999	103.583	33.5736
24.700001	103.606	32.7722
25.000000	103.622	32.1973
25.400000	103.641	31.4671
25.799999	103.662	30.7671
26.200001	103.684	30.0793
26.500000	103.700	29.5649
26.900000	103.718	28.8835
27.200001	103.729	28.3833
27.600000	103.741	27.7408
28.000000	103.753	27.1281
28.500000	103.770	26.3870
29.000000	103.789	25.6437
29.500000	103.805	24.8872
30.000000	103.816	24.1345
30.400000	103.821	23.5532
30.700001	103.823	23.1350
31.100000	103.827	22.6006
31.500000	103.832	22.0857
32.000000	103.841	21.4537
32.500000	103.851	20.8207
33.000000	103.861	20.1829
33.500000	103.867	19.5487
34.000000	103.870	18.9315
34.500000	103.871	18.3418
35.000000	103.871	17.7827
35.500000	103.872	17.2487
36.000000	103.875	16.7280
36.500000	103.879	16.2084
37.000000	103.883	15.6827
37.500000	103.885	15.1534
38.200001	103.882	14.4246
38.700001	103.878	13.9238
39.500000	103.870	13.1617
40.000000	103.866	12.7057
40.599998	103.862	12.1733
41.200001	103.860	11.6508
41.799999	103.859	11.1294
42.500000	103.857	10.5151
43.099998	103.852	9.9894
43.700001	103.845	9.4781
44.400002	103.836	8.9086
45.000000	103.827	8.4375
45.500000	103.821	8.0508
46.200001	103.810	7.5171
46.799999	103.800	7.0691
47.500000	103.787	6.5605
48.200001	103.774	6.0687
48.700001	103.765	5.7256
49.400002	103.754	5.2481
50.000000	103.744	4.8375
50.799999	103.729	4.2980
51.500000	103.716	3.8423
52.200001	103.703	3.3971
53.000000	103.687	2.8973
53.799999	103.671	2.4112
54.500000	103.657	1.9933
55.200001	103.642	1.5790
56.000000	103.625	1.1144
57.000000	103.602	0.5442
58.000000	103.579	-0.0153
59.000000	103.556	-0.5598
60.000000	103.533	-1.1025
60.799999	103.513	-1.5267
61.500000	103.495	-1.8851
62.200001	103.478	-2.2380
63.000000	103.458	-2.6376
64.000000	103.431	-3.1208
65.000000	103.403	-3.5844
66.000000	103.375	-4.0370
67.000000	103.346	-4.4761
68.000000	103.319	-4.9016
69.000000	103.292	-5.3242
70.000000	103.265	-5.7512
71.000000	103.235	-6.1694
72.000000	103.204	-6.5610
73.000000	103.175	-6.9396
74.000000	103.147	-7.3226
75.000000	103.116	-7.7059
76.199997	103.078	-8.1459
77.500000	103.039	-8.6069
78.800003	103.000	-9.0710
80.000000	102.964	-9.4909
81.199997	102.926	-9.9028
82.500000	102.884	-10.3258
83.800003	102.842	-10.7217
85.000000	102.805	-11.0835
86.199997	102.768	-11.4467
87.500000	102.726	-11.8405
88.500000	102.693	-12.1398
90.000000	102.643	-12.5696
91.199997	102.604	-12.8979
92.500000	102.563	-13.2460
93.800003	102.523	-13.5934
95.000000	102.484	-13.9078
96.199997	102.443	-14.2042
97.500000	102.399	-14.5170
98.800003	102.355	-14.8361
100.000000	102.311	-15.1156
101.500000	102.260	-15.4446
103.000000	102.210	-15.7706
104.400002	102.164	-16.0719
106.000000	102.110	-16.4008
107.500000	102.059	-16.6935
109.000000	102.008	-16.9922
110.599998	101.952	-17.3147
112.000000	101.902	-17.5747
113.800003	101.839	-17.8710
115.000000	101.797	-18.0531
117.199997	101.714	-18.3835
118.000000	101.682	-18.4935
120.599998	101.593	-18.7848
122.000000	101.558	-19.0013
124.099998	101.501	-19.3544
125.000000	101.475	-19.4872
126.500000	101.431	-19.6842
128.000000	101.386	-19.8594
131.500000	101.284	-20.2391
132.000000	101.270	-20.2950
134.000000	101.214	-20.5181
136.000000	101.156	-20.7355
138.000000	101.097	-20.9467
140.000000	101.038	-21.1565
143.000000	100.953	-21.4761
145.000000	100.898	-21.6819
147.500000	100.828	-21.9320
150.000000	100.756	-22.1764
152.500000	100.685	-22.4177
155.000000	100.614	-22.6527
157.500000	100.541	-22.8737
160.000000	100.465	-23.0891
162.500000	100.388	-23.2875
165.000000	100.314	-23.4728
167.500000	100.240	-23.6401
170.000000	100.165	-23.7751
172.500000	100.090	-23.8979
175.000000	100.014	-24.0165
177.500000	99.941	-24.1208
180.000000	99.869	-24.2203
182.500000	99.797	-24.3060
185.000000	99.724	-24.3695
187.500000	99.653	-24.4276
190.000000	99.584	-24.4760
192.500000	99.517	-24.4980
195.000000	99.455	-24.5021
197.500000	99.391	-24.5101
200.000000	99.330	-24.5281
203.000000	99.260	-24.5456
206.000000	99.189	-24.5585
209.000000	99.110	-24.5523
212.000000	99.036	-24.5254
214.000000	98.993	-24.4891
218.000000	98.915	-24.4098
220.000000	98.878	-24.3707
224.000000	98.806	-24.3380
227.000000	98.753	-24.3153
230.000000	98.703	-24.3158
233.000000	98.650	-24.3396
236.000000	98.598	-24.3820
240.000000	98.520	-24.4760
243.000000	98.457	-24.5244
247.000000	98.373	-24.5801
250.000000	98.305	-24.6044
254.000000	98.216	-24.5908
258.000000	98.131	-24.5737
262.000000	98.044	-24.5588
265.000000	97.976	-24.5113
269.000000	97.891	-24.4097
272.000000	97.830	-24.3353
276.000000	97.749	-24.2448
280.000000	97.665	-24.1451
285.000000	97.564	-23.9821
290.000000	97.466	-23.8315
295.000000	97.367	-23.6608
300.000000	97.273	-23.4640
304.000000	97.201	-23.2986
307.000000	97.147	-23.1732
311.000000	97.077	-23.0067
315.000000	97.008	-22.8406
320.000000	96.924	-22.6240
325.000000	96.839	-22.3928
330.000000	96.753	-22.1525
335.000000	96.670	-21.9076
340.000000	96.590	-21.6492
345.000000	96.510	-21.3796
350.000000	96.430	-21.1006
355.000000	96.353	-20.8311
360.000000	96.279	-20.5627
365.000000	96.205	-20.2720
370.000000	96.132	-19.9705
375.000000	96.060	-19.6642
382.000000	95.965	-19.2333
387.000000	95.898	-18.9220
395.000000	95.792	-18.4169
400.000000	95.728	-18.0973
406.000000	95.653	-17.7050
412.000000	95.579	-17.3083
418.000000	95.508	-16.9081
425.000000	95.427	-16.4357
431.000000	95.358	-16.0213
437.000000	95.291	-15.6066
444.000000	95.214	-15.1203
450.000000	95.150	-14.6929
455.000000	95.097	-14.3312
462.000000	95.024	-13.8192
468.000000	94.964	-13.3777
475.000000	94.895	-12.8672
482.000000	94.828	-12.3557
487.000000	94.782	-11.9851
494.000000	94.719	-11.4550
500.000000	94.666	-10.9935
508.000000	94.598	-10.3763
515.000000	94.540	-9.8339
522.000000	94.483	-9.2977
530.000000	94.421	-8.6844
538.000000	94.360	-8.0544
545.000000	94.308	-7.4966
552.000000	94.258	-6.9395
560.000000	94.204	-6.2993
570.000000	94.138	-5.4926
580.000000	94.076	-4.6870
590.000000	94.018	-3.8749
600.000000	93.961	-3.0630
608.000000	93.918	-2.4077
615.000000	93.882	-1.8248
622.000000	93.848	-1.2365
630.000000	93.810	-0.5647
640.000000	93.764	0.2675
650.000000	93.722	1.0956
660.000000	93.684	1.9313
670.000000	93.648	2.7778
680.000000	93.615	3.6259
690.000000	93.583	4.4675
700.000000	93.554	5.3088
710.000000	93.529	6.1508
720.000000	93.505	6.9855
730.000000	93.483	7.8122
740.000000	93.462	8.6256
750.000000	93.440	9.4197
762.000000	93.408	10.3325
775.000000	93.349	11.2994
788.000000	93.247	12.5031
800.000000	93.162	14.1946
812.000000	93.178	16.1537
825.000000	93.272	17.8275
838.000000	93.357	19.1660
850.000000	93.436	20.3546
862.000000	93.525	21.4329
875.000000	93.615	22.4221
885.000000	93.671	23.1257
900.000000	93.742	24.1945
912.000000	93.796	25.0830
925.000000	93.856	26.0682
938.000000	93.921	27.0596
950.000000	93.986	27.9727
962.000000	94.055	28.8766
975.000000	94.134	29.8413
988.000000	94.218	30.7905
1000.000000	94.299	31.6475
1015.000000	94.404	32.6916
1030.000000	94.515	33.7072
1044.000000	94.623	34.6238
1060.000000	94.751	35.6276
1075.000000	94.875	36.5262
1090.000000	95.002	37.3879
1106.000000	95.141	38.2655
1120.000000	95.265	38.9980
1138.000000	95.428	39.8881
1150.000000	95.537	40.4455
1172.000000	95.741	41.4012
1180.000000	95.816	41.7290
1206.000000	96.061	42.7223
1220.000000	96.193	43.2091
1241.000000	96.390	43.8767
1250.000000	96.474	44.1419
1265.000000	96.613	44.5567
1280.000000	96.750	44.9400
1315.000000	97.066	45.7212
1320.000000	97.110	45.8200
1340.000000	97.285	46.1883
1360.000000	97.456	46.5203
1380.000000	97.623	46.8224
1400.000000	97.786	47.0993
1430.000000	98.025	47.4745
1450.000000	98.181	47.7060
1475.000000	98.373	47.9771
1500.000000	98.563	48.2291
1525.000000	98.752	48.4669
1550.000000	98.939	48.6891
1575.000000	99.127	48.8958
1600.000000	99.315	49.0853
1625.000000	99.504	49.2544
1650.000000	99.695	49.4021
1675.000000	99.889	49.5241
1700.000000	100.085	49.6148
1725.000000	100.284	49.6719
1750.000000	100.485	49.6915
1775.000000	100.690	49.6695
1800.000000	100.897	49.6000
1825.000000	101.108	49.4794
1850.000000	101.320	49.3028
1875.000000	101.535	49.0685
1900.000000	101.750	48.7716
1925.000000	101.966	48.4074
1950.000000	102.182	47.9715
1975.000000	102.397	47.4615
2000.000000	102.611	46.8751
2030.000000	102.864	46.0663
2060.000000	103.111	45.1373
2090.000000	103.351	44.0867
2120.000000	103.582	42.9130
2140.000000	103.730	42.0617
2180.000000	104.006	40.1991
2200.000000	104.133	39.1929
2240.000000	104.361	37.0472
2270.000000	104.507	35.3374
2300.000000	104.630	33.5584
2330.000000	104.729	31.7293
2360.000000	104.802	29.8700
2400.000000	104.859	27.3805
2430.000000	104.872	25.5333
2470.000000	104.850	23.1350
2500.000000	104.806	21.4094
2540.000000	104.715	19.2366
2580.000000	104.591	17.2355
2620.000000	104.439	15.4279
2650.000000	104.311	14.2074
2690.000000	104.124	12.7648
2720.000000	103.976	11.8212
2760.000000	103.769	10.7437
2800.000000	103.558	9.8657
2850.000000	103.291	9.0326
2900.000000	103.027	8.4713
2950.000000	102.769	8.1572
3000.000000	102.519	8.0647
3040.000000	102.328	8.1344
3070.000000	102.191	8.2637
3110.000000	102.014	8.5305
3150.000000	101.847	8.8981
3200.000000	101.651	9.4913
3250.000000	101.469	10.2311
3300.000000	101.302	11.1254
3350.000000	101.154	12.1892
3400.000000	101.033	13.4266
3450.000000	100.948	14.8052
3500.000000	100.908	16.2469
3550.000000	100.914	17.6326
3600.000000	100.952	18.8539
3650.000000	100.998	19.9095
3700.000000	101.042	20.8965
3750.000000	101.087	21.9038
3820.000000	101.168	23.3982
3870.000000	101.247	24.5078
3950.000000	101.415	26.2925
4000.000000	101.548	27.3911
4060.000000	101.739	28.6689
4120.000000	101.965	29.8720
4180.000000	102.229	30.9611
4250.000000	102.586	32.0225
4310.000000	102.934	32.6865
4370.000000	103.317	33.0386
4440.000000	103.798	32.9444
4500.000000	104.219	32.3600
4550.000000	104.561	31.4995
4620.000000	105.002	29.7852
4680.000000	105.335	27.9685
4750.000000	105.673	25.6025
4820.000000	105.973	23.0350
4870.000000	106.170	21.0439
4940.000000	106.419	17.9402
5000.000000	106.592	14.9272
5080.000000	106.732	10.4117
5150.000000	106.738	6.1233
5220.000000	106.618	1.7461
5300.000000	106.319	-3.0398
5380.000000	105.863	-7.2760
5450.000000	105.355	-10.3365
5520.000000	104.761	-12.6505
5600.000000	103.988	-14.0544
5700.000000	103.022	-12.8523
5800.000000	102.563	-10.4744
5900.000000	102.191	-10.3434
6000.000000	101.632	-9.5297
6080.000000	101.207	-8.0659
6150.000000	100.883	-6.4478
6220.000000	100.602	-4.6234
6300.000000	100.331	-2.3547
6400.000000	100.065	0.6899
6500.000000	99.879	3.9138
6600.000000	99.774	7.2615
6700.000000	99.750	10.6769
6800.000000	99.810	14.1154
6900.000000	99.954	17.5352
7000.000000	100.188	20.8910
7100.000000	100.520	24.1259
7200.000000	100.960	27.1577
7300.000000	101.517	29.8763
7400.000000	102.205	32.1476
7500.000000	103.036	33.7834
7620.000000	104.241	34.4769
7750.000000	105.788	32.7017
7880.000000	107.432	26.6395
8000.000000	108.682	15.7255
8120.000000	109.222	0.3024
8250.000000	108.735	-16.8762
8380.000000	107.323	-29.6002
8500.000000	105.639	-36.2621
8620.000000	103.953	-39.0771
8750.000000	102.314	-39.3355
8850.000000	101.214	-38.2867
9000.000000	99.813	-35.4267
9120.000000	98.880	-32.4141
9250.000000	98.033	-28.6890
9380.000000	97.332	-24.6389
9500.000000	96.803	-20.7145
9620.000000	96.376	-16.6974
9750.000000	96.015	-12.3076
9880.000000	95.751	-7.8969
10000.000000	95.593	-3.8351
10150.000000	95.510	1.1245
10300.000000	95.544	5.8755
10440.000000	95.676	10.0762
10600.000000	95.941	14.5228
10750.000000	96.299	18.2741
10900.000000	96.758	21.5150
11060.000000	97.352	24.2691
11200.000000	97.949	25.9636
11380.000000	98.808	26.9738
11500.000000	99.426	26.8077
11720.000000	100.653	24.3882
11800.000000	101.129	22.5978
12060.000000	102.496	10.8901
12200.000000	102.715	0.4415
12410.000000	101.850	-15.6643
12500.000000	101.066	-20.7098
12650.000000	99.420	-25.2120
12800.000000	97.661	-25.1810
13150.000000	94.526	-15.0222
13200.000000	94.238	-13.0680
13400.000000	93.466	-5.1545
13600.000000	93.242	1.7132
13800.000000	93.342	5.1251
14000.000000	92.912	5.5984
14300.000000	91.458	22.5015
14500.000000	92.429	35.5964
14750.000000	94.562	44.1071
15000.000000	97.276	46.3975
15250.000000	100.199	38.8457
15500.000000	101.938	16.7381
15750.000000	101.373	-10.3119
16000.000000	98.973	-25.8835
16250.000000	96.225	-29.2467
16500.000000	94.148	-26.6801
16750.000000	92.925	-21.7504
17000.000000	92.604	-16.5741
17250.000000	93.155	-14.2065
17500.000000	94.136	-18.0665
17750.000000	94.777	-30.2607
18000.000000	94.316	-47.9246
18250.000000	92.515	-62.9768
18500.000000	89.802	-70.4690
18750.000000	86.851	-71.7556
19000.000000	84.067	-69.6461
19250.000000	81.470	-65.0917
19500.000000	79.114	-58.5168
19750.000000	77.375	-53.3185
