* Measurement data measured by REW V5.20.13
* Source: Headset (KM-HIFI-384KHZ), MICROPHONE (Master Volume), R, volume: 0.250
* Format: 256k Log Swept Sine, 1 sweep at -13.0 dBFS with no timing reference
* Dated: Aug 6, 2023 11:41:10 PM
* REW Settings:
*  C-weighting compensation: Off
*  Target level: 75.0 dB
* Note: 
* Measurement: Aug 6
* Smoothing: 1/24 octave
* Frequency Step: 1/48 octave
* Start Frequency: 20.000 Hz
*
* Freq(Hz)	SPL(dB)	Phase(degrees)
20.000000	90.655	-152.3714
20.299999	90.651	-153.3459
20.600000	90.635	-154.2438
20.900000	90.612	-155.0440
21.200001	90.591	-155.7618
21.400000	90.580	-156.2179
21.799999	90.562	-157.1098
22.000000	90.553	-157.5544
22.400000	90.529	-158.4290
22.700001	90.506	-159.0387
23.000000	90.485	-159.5838
23.299999	90.470	-160.0773
23.600000	90.466	-160.5590
24.000000	90.474	-161.2621
24.299999	90.483	-161.8778
24.700001	90.483	-162.8011
25.000000	90.468	-163.5066
25.400000	90.431	-164.3628
25.799999	90.393	-165.0720
26.200001	90.370	-165.7062
26.500000	90.364	-166.2208
26.900000	90.356	-167.0349
27.200001	90.336	-167.7266
27.600000	90.279	-168.6476
28.000000	90.189	-169.3978
28.500000	90.065	-169.9651
29.000000	89.963	-170.2323
29.500000	89.882	-170.3585
30.000000	89.810	-170.2776
30.400000	89.778	-169.9595
30.700001	89.789	-169.6032
31.100000	89.870	-169.1912
31.500000	90.010	-169.1413
32.000000	90.196	-169.8621
32.500000	90.303	-171.2472
33.000000	90.299	-172.6651
33.500000	90.231	-173.6374
34.000000	90.176	-174.1477
34.500000	90.171	-174.5449
35.000000	90.197	-175.1290
35.500000	90.214	-175.9448
36.000000	90.199	-176.8339
36.500000	90.160	-177.6397
37.000000	90.113	-178.3105
37.500000	90.070	-178.8934
38.200001	90.017	-179.6751
38.700001	89.975	179.7860
39.500000	89.904	179.0585
40.000000	89.868	178.6796
40.599998	89.836	178.2168
41.200001	89.804	177.6986
41.799999	89.764	177.1745
42.500000	89.710	176.6350
43.099998	89.668	176.2240
43.700001	89.631	175.8086
44.400002	89.586	175.2979
45.000000	89.542	174.8680
45.500000	89.504	174.5365
46.200001	89.455	174.1012
46.799999	89.415	173.7230
47.500000	89.367	173.2670
48.200001	89.315	172.8286
48.700001	89.277	172.5414
49.400002	89.226	172.1729
50.000000	89.186	171.8700
50.799999	89.137	171.4545
51.500000	89.091	171.0866
52.200001	89.043	170.7489
53.000000	88.989	170.4128
53.799999	88.941	170.1155
54.500000	88.906	169.8651
55.200001	88.872	169.5901
56.000000	88.828	169.2822
57.000000	88.781	168.9976
58.000000	88.753	168.5552
59.000000	88.686	167.9538
60.000000	88.595	167.5854
60.799999	88.539	167.3359
61.500000	88.490	167.0634
62.200001	88.436	166.7993
63.000000	88.375	166.5475
64.000000	88.309	166.2680
65.000000	88.251	166.0038
66.000000	88.198	165.7598
67.000000	88.149	165.5415
68.000000	88.106	165.3221
69.000000	88.060	165.0618
70.000000	88.003	164.7840
71.000000	87.939	164.5518
72.000000	87.878	164.3630
73.000000	87.824	164.1669
74.000000	87.772	163.9356
75.000000	87.718	163.7012
76.199997	87.653	163.4466
77.500000	87.583	163.1977
78.800003	87.512	162.9787
80.000000	87.448	162.7776
81.199997	87.384	162.5795
82.500000	87.315	162.3721
83.800003	87.247	162.1908
85.000000	87.189	162.0337
86.199997	87.130	161.8848
87.500000	87.066	161.7554
88.500000	87.019	161.6665
90.000000	86.948	161.5316
91.199997	86.890	161.4308
92.500000	86.827	161.3429
93.800003	86.766	161.2620
95.000000	86.709	161.1803
96.199997	86.652	161.0974
97.500000	86.588	161.0078
98.800003	86.523	160.9307
100.000000	86.463	160.8759
101.500000	86.391	160.8187
103.000000	86.321	160.7721
104.400002	86.256	160.7404
106.000000	86.182	160.7158
107.500000	86.114	160.7022
109.000000	86.046	160.6912
110.599998	85.974	160.6777
112.000000	85.911	160.6685
113.800003	85.831	160.6644
115.000000	85.779	160.6676
117.199997	85.681	160.6947
118.000000	85.645	160.7128
120.599998	85.522	160.7949
122.000000	85.449	160.8904
124.099998	85.341	161.1002
125.000000	85.295	161.2097
126.500000	85.217	161.4245
128.000000	85.138	161.6900
131.500000	84.943	162.6530
132.000000	84.916	162.8440
134.000000	84.822	163.7504
136.000000	84.764	164.8545
138.000000	84.765	166.0558
140.000000	84.835	167.1792
143.000000	85.045	168.1744
145.000000	85.197	168.1719
147.500000	85.337	167.6001
150.000000	85.404	166.7902
152.500000	85.411	166.0206
155.000000	85.378	165.3809
157.500000	85.323	164.8715
160.000000	85.256	164.5007
162.500000	85.188	164.2499
165.000000	85.121	164.0735
167.500000	85.056	163.9428
170.000000	84.993	163.8495
172.500000	84.931	163.8110
175.000000	84.871	163.8101
177.500000	84.812	163.8354
180.000000	84.755	163.8806
182.500000	84.701	163.9485
185.000000	84.648	164.0376
187.500000	84.595	164.1380
190.000000	84.543	164.2394
192.500000	84.493	164.3411
195.000000	84.444	164.4480
197.500000	84.398	164.5624
200.000000	84.352	164.6824
203.000000	84.300	164.8304
206.000000	84.248	164.9760
209.000000	84.200	165.1264
212.000000	84.154	165.2866
214.000000	84.124	165.3961
218.000000	84.065	165.6051
220.000000	84.037	165.7065
224.000000	83.986	165.9273
227.000000	83.948	166.1020
230.000000	83.910	166.2684
233.000000	83.874	166.4275
236.000000	83.840	166.5898
240.000000	83.796	166.8190
243.000000	83.763	166.9897
247.000000	83.721	167.2144
250.000000	83.691	167.3865
254.000000	83.651	167.6289
258.000000	83.611	167.8745
262.000000	83.573	168.1232
265.000000	83.546	168.3134
269.000000	83.512	168.5682
272.000000	83.487	168.7594
276.000000	83.456	169.0073
280.000000	83.427	169.2358
285.000000	83.389	169.5006
290.000000	83.353	169.7654
295.000000	83.318	170.0071
300.000000	83.279	170.2580
304.000000	83.249	170.4804
307.000000	83.228	170.6484
311.000000	83.202	170.8689
315.000000	83.177	171.0866
320.000000	83.146	171.3568
325.000000	83.116	171.6327
330.000000	83.088	171.9069
335.000000	83.062	172.1779
340.000000	83.038	172.4380
345.000000	83.016	172.6753
350.000000	82.996	172.8994
355.000000	82.978	173.1404
360.000000	82.959	173.4033
365.000000	82.936	173.6671
370.000000	82.913	173.9233
375.000000	82.891	174.1829
382.000000	82.861	174.5404
387.000000	82.838	174.7845
395.000000	82.805	175.1752
400.000000	82.785	175.4256
406.000000	82.763	175.7256
412.000000	82.743	176.0168
418.000000	82.723	176.3040
425.000000	82.699	176.6420
431.000000	82.679	176.9360
437.000000	82.660	177.2301
444.000000	82.642	177.5733
450.000000	82.625	177.8629
455.000000	82.611	178.1023
462.000000	82.594	178.4350
468.000000	82.583	178.7190
475.000000	82.571	179.0455
482.000000	82.558	179.3678
487.000000	82.548	179.6008
494.000000	82.534	179.9262
500.000000	82.524	-179.7982
508.000000	82.511	-179.4298
515.000000	82.498	-179.1074
522.000000	82.483	-178.7850
530.000000	82.469	-178.4118
538.000000	82.458	-178.0333
545.000000	82.447	-177.7071
552.000000	82.434	-177.3891
560.000000	82.421	-177.0255
570.000000	82.408	-176.5599
580.000000	82.397	-176.0854
590.000000	82.383	-175.6198
600.000000	82.373	-175.1584
608.000000	82.368	-174.7825
615.000000	82.365	-174.4533
622.000000	82.361	-174.1269
630.000000	82.357	-173.7547
640.000000	82.354	-173.2872
650.000000	82.354	-172.8109
660.000000	82.355	-172.3360
670.000000	82.357	-171.8705
680.000000	82.360	-171.4030
690.000000	82.364	-170.9210
700.000000	82.369	-170.4299
710.000000	82.374	-169.9471
720.000000	82.380	-169.4721
730.000000	82.388	-168.9939
740.000000	82.398	-168.5048
750.000000	82.409	-168.0104
762.000000	82.424	-167.4263
775.000000	82.443	-166.8005
788.000000	82.467	-166.1656
800.000000	82.492	-165.5789
812.000000	82.520	-165.0042
825.000000	82.553	-164.3898
838.000000	82.590	-163.7771
850.000000	82.628	-163.2153
862.000000	82.670	-162.6653
875.000000	82.720	-162.0916
885.000000	82.762	-161.6663
900.000000	82.828	-161.0495
912.000000	82.883	-160.5856
925.000000	82.940	-160.1341
938.000000	82.988	-159.7162
950.000000	83.021	-159.2523
962.000000	83.068	-158.6719
975.000000	83.143	-158.0741
988.000000	83.226	-157.5947
1000.000000	83.301	-157.2211
1015.000000	83.390	-156.8047
1030.000000	83.477	-156.4264
1044.000000	83.558	-156.1055
1060.000000	83.651	-155.7759
1075.000000	83.736	-155.5002
1090.000000	83.821	-155.2584
1106.000000	83.907	-155.0303
1120.000000	83.980	-154.8544
1138.000000	84.068	-154.6546
1150.000000	84.124	-154.5365
1172.000000	84.222	-154.3432
1180.000000	84.255	-154.2747
1206.000000	84.354	-154.0387
1220.000000	84.402	-153.8849
1241.000000	84.471	-153.5897
1250.000000	84.502	-153.4366
1265.000000	84.558	-153.1544
1280.000000	84.624	-152.8665
1315.000000	84.805	-152.3602
1320.000000	84.832	-152.3184
1340.000000	84.933	-152.2226
1360.000000	85.017	-152.1743
1380.000000	85.087	-152.0582
1400.000000	85.158	-151.8150
1430.000000	85.306	-151.3740
1450.000000	85.433	-151.2362
1475.000000	85.593	-151.3708
1500.000000	85.719	-151.7423
1525.000000	85.806	-152.1543
1550.000000	85.866	-152.4677
1575.000000	85.913	-152.6545
1600.000000	85.957	-152.7688
1625.000000	86.004	-152.8488
1650.000000	86.051	-152.8886
1675.000000	86.094	-152.8995
1700.000000	86.137	-152.9144
1725.000000	86.178	-152.9327
1750.000000	86.215	-152.9233
1775.000000	86.248	-152.8746
1800.000000	86.278	-152.8093
1825.000000	86.307	-152.7389
1850.000000	86.334	-152.6441
1875.000000	86.356	-152.5037
1900.000000	86.372	-152.3136
1925.000000	86.386	-152.0755
1950.000000	86.399	-151.7701
1975.000000	86.412	-151.3533
2000.000000	86.429	-150.7878
2030.000000	86.469	-149.9173
2060.000000	86.550	-148.9079
2090.000000	86.690	-147.8916
2120.000000	86.890	-147.0553
2140.000000	87.045	-146.6990
2180.000000	87.360	-146.6030
2200.000000	87.498	-146.8209
2240.000000	87.714	-147.5170
2270.000000	87.822	-148.0623
2300.000000	87.895	-148.4828
2330.000000	87.946	-148.7125
2360.000000	87.988	-148.7434
2400.000000	88.058	-148.4971
2430.000000	88.136	-148.1478
2470.000000	88.288	-147.5940
2500.000000	88.438	-147.2392
2540.000000	88.672	-147.0485
2580.000000	88.912	-147.2720
2620.000000	89.122	-147.7749
2650.000000	89.261	-148.2046
2690.000000	89.431	-148.7930
2720.000000	89.553	-149.2706
2760.000000	89.703	-149.9850
2800.000000	89.831	-150.7455
2850.000000	89.961	-151.6214
2900.000000	90.076	-152.3317
2950.000000	90.203	-152.9133
3000.000000	90.358	-153.5069
3040.000000	90.494	-154.0910
3070.000000	90.594	-154.6192
3110.000000	90.718	-155.4297
3150.000000	90.827	-156.3205
3200.000000	90.943	-157.4770
3250.000000	91.040	-158.6210
3300.000000	91.121	-159.7441
3350.000000	91.195	-160.8711
3400.000000	91.261	-162.0137
3450.000000	91.312	-163.1544
3500.000000	91.350	-164.2719
3550.000000	91.381	-165.3715
3600.000000	91.406	-166.4670
3650.000000	91.423	-167.5703
3700.000000	91.430	-168.6852
3750.000000	91.424	-169.8044
3820.000000	91.395	-171.3489
3870.000000	91.362	-172.4042
3950.000000	91.290	-173.9822
4000.000000	91.239	-174.9055
4060.000000	91.172	-175.9705
4120.000000	91.100	-177.0022
4180.000000	91.019	-178.0016
4250.000000	90.913	-179.1072
4310.000000	90.811	-179.9857
4370.000000	90.699	179.2014
4440.000000	90.560	178.3368
4500.000000	90.433	177.6720
4550.000000	90.324	177.1720
4620.000000	90.167	176.5499
4680.000000	90.031	176.0901
4750.000000	89.870	175.6449
4820.000000	89.707	175.2937
4870.000000	89.591	175.0960
4940.000000	89.429	174.8969
5000.000000	89.294	174.8012
5080.000000	89.121	174.7736
5150.000000	88.977	174.8210
5220.000000	88.840	174.9246
5300.000000	88.693	175.1180
5380.000000	88.557	175.3950
5450.000000	88.449	175.6976
5520.000000	88.352	176.0403
5600.000000	88.254	176.4704
5700.000000	88.150	177.0530
5800.000000	88.064	177.6824
5900.000000	87.998	178.3516
6000.000000	87.954	179.0418
6080.000000	87.935	179.5872
6150.000000	87.929	-179.9539
6220.000000	87.931	-179.5118
6300.000000	87.945	-179.0217
6400.000000	87.981	-178.4305
6500.000000	88.039	-177.8569
6600.000000	88.123	-177.2938
6700.000000	88.245	-176.7620
6800.000000	88.417	-176.3400
6900.000000	88.635	-176.1297
7000.000000	88.894	-176.2140
7100.000000	89.190	-176.6656
7200.000000	89.516	-177.5579
7300.000000	89.862	-178.9643
7400.000000	90.211	179.0459
7500.000000	90.544	176.4225
7620.000000	90.891	172.4243
7750.000000	91.159	167.1144
7880.000000	91.273	160.9662
8000.000000	91.209	154.8200
8120.000000	90.972	148.5206
8250.000000	90.521	141.8184
8380.000000	89.878	135.5115
8500.000000	89.125	130.2779
8620.000000	88.237	125.8198
8750.000000	87.145	122.0814
8850.000000	86.238	120.0880
9000.000000	84.823	118.6117
9120.000000	83.689	118.6953
9250.000000	82.502	119.8976
9380.000000	81.386	122.0483
9500.000000	80.429	124.6909
9620.000000	79.546	127.8193
9750.000000	78.666	131.6476
9880.000000	77.862	135.8582
10000.000000	77.179	140.0436
10150.000000	76.399	145.6528
10300.000000	75.692	151.6894
10440.000000	75.105	157.7479
10600.000000	74.531	165.3057
10750.000000	74.110	173.1249
10900.000000	73.871	-178.3000
11060.000000	73.926	-168.7015
11200.000000	74.288	-160.6615
11380.000000	75.114	-152.1003
11500.000000	75.776	-148.0721
11720.000000	76.888	-144.2488
11800.000000	77.204	-143.6947
12060.000000	77.872	-142.8994
12200.000000	78.061	-142.3003
12410.000000	78.244	-140.6359
12500.000000	78.316	-139.6570
12650.000000	78.460	-137.7706
12800.000000	78.651	-135.6992
13150.000000	79.309	-130.8236
13200.000000	79.429	-130.1681
13400.000000	79.987	-127.7646
13600.000000	80.687	-125.9721
13800.000000	81.520	-125.1727
14000.000000	82.458	-125.7079
14300.000000	83.963	-129.7204
14500.000000	84.927	-135.0653
14750.000000	85.859	-145.0237
15000.000000	86.274	-157.5609
15250.000000	86.110	-170.5823
15500.000000	85.484	177.6243
15750.000000	84.578	167.5348
16000.000000	83.502	158.7826
16250.000000	82.269	151.0579
16500.000000	80.855	144.4783
16750.000000	79.252	139.4462
17000.000000	77.496	136.3344
17250.000000	75.654	135.2936
17500.000000	73.800	136.2366
17750.000000	72.003	138.8565
18000.000000	70.282	142.8032
18250.000000	68.589	148.1717
18500.000000	66.949	155.5352
18750.000000	65.538	164.0631
19000.000000	64.318	172.7713
19250.000000	63.158	-178.2269
19500.000000	62.007	-168.9530
19750.000000	60.899	-160.3730
