* Measurement data measured by REW V5.20.13
* Source: EXCL: Headset (KM-HIFI-384KHZ), MICROPHONE (Master Volume), 0, volume: 1.000
* Format: 256k Log Swept Sine, 1 sweep at -13.0 dBFS with no timing reference
* Dated: Aug 12, 2023 11:59:04 AM
* REW Settings:
*  C-weighting compensation: Off
*  Target level: 75.0 dB
* Note: 
* Measurement: Aug 12
* Smoothing: 1/24 octave
* Frequency Step: 1/48 octave
* Start Frequency: 20.000 Hz
*
* Freq(Hz)	SPL(dB)	Phase(degrees)
20.000000	107.579	-179.2703
20.299999	107.557	-179.8544
20.600000	107.537	179.5590
20.900000	107.517	178.9646
21.200001	107.495	178.3719
21.400000	107.479	177.9873
21.799999	107.446	177.2518
22.000000	107.430	176.9009
22.400000	107.401	176.2200
22.700001	107.382	175.7115
23.000000	107.363	175.1959
23.299999	107.342	174.6790
23.600000	107.318	174.1704
24.000000	107.285	173.5182
24.299999	107.260	173.0480
24.700001	107.228	172.4315
25.000000	107.203	171.9667
25.400000	107.167	171.3445
25.799999	107.126	170.7427
26.200001	107.082	170.1843
26.500000	107.052	169.7899
26.900000	107.015	169.2697
27.200001	106.990	168.8614
27.600000	106.954	168.2827
28.000000	106.910	167.6942
28.500000	106.843	167.0255
29.000000	106.779	166.4730
29.500000	106.729	165.9701
30.000000	106.691	165.4148
30.400000	106.657	164.9246
30.700001	106.626	164.5577
31.100000	106.581	164.1132
31.500000	106.538	163.7351
32.000000	106.497	163.3121
32.500000	106.470	162.8498
33.000000	106.444	162.2912
33.500000	106.407	161.6643
34.000000	106.355	161.0399
34.500000	106.289	160.4775
35.000000	106.215	160.0114
35.500000	106.143	159.6598
36.000000	106.081	159.4082
36.500000	106.040	159.1936
37.000000	106.019	158.9123
37.500000	106.008	158.4810
38.200001	105.975	157.6155
38.700001	105.921	156.9214
39.500000	105.787	156.0184
40.000000	105.697	155.6741
40.599998	105.607	155.4134
41.200001	105.539	155.1680
41.799999	105.477	154.8797
42.500000	105.398	154.5820
43.099998	105.337	154.4458
43.700001	105.300	154.3695
44.400002	105.289	154.1711
45.000000	105.290	153.7823
45.500000	105.279	153.3167
46.200001	105.232	152.5970
46.799999	105.168	152.0577
47.500000	105.089	151.5625
48.200001	105.015	151.1389
48.700001	104.966	150.8492
49.400002	104.899	150.4618
50.000000	104.844	150.1462
50.799999	104.774	149.7335
51.500000	104.713	149.3792
52.200001	104.654	149.0397
53.000000	104.586	148.6699
53.799999	104.518	148.3164
54.500000	104.456	148.0233
55.200001	104.392	147.7530
56.000000	104.319	147.4712
57.000000	104.228	147.1207
58.000000	104.130	146.7654
59.000000	104.030	146.4279
60.000000	103.935	146.0686
60.799999	103.860	145.7527
61.500000	103.796	145.4641
62.200001	103.733	145.1754
63.000000	103.665	144.8586
64.000000	103.586	144.4829
65.000000	103.512	144.1339
66.000000	103.438	143.8306
67.000000	103.364	143.5655
68.000000	103.287	143.3284
69.000000	103.207	143.1022
70.000000	103.124	142.8652
71.000000	103.039	142.6147
72.000000	102.953	142.3545
73.000000	102.871	142.0931
74.000000	102.794	141.8358
75.000000	102.721	141.5795
76.199997	102.633	141.2861
77.500000	102.536	141.0311
78.800003	102.442	140.8119
80.000000	102.355	140.6064
81.199997	102.267	140.3950
82.500000	102.170	140.1678
83.800003	102.076	139.9483
85.000000	101.991	139.7557
86.199997	101.908	139.5741
87.500000	101.818	139.3829
88.500000	101.749	139.2428
90.000000	101.645	139.0524
91.199997	101.564	138.9009
92.500000	101.476	138.7359
93.800003	101.387	138.5867
95.000000	101.307	138.4642
96.199997	101.229	138.3474
97.500000	101.145	138.2211
98.800003	101.062	138.0977
100.000000	100.984	137.9901
101.500000	100.888	137.8759
103.000000	100.797	137.7741
104.400002	100.714	137.6677
106.000000	100.618	137.5432
107.500000	100.527	137.4352
109.000000	100.435	137.3443
110.599998	100.338	137.2737
112.000000	100.256	137.2125
113.800003	100.153	137.1161
115.000000	100.084	137.0494
117.199997	99.957	136.9426
118.000000	99.911	136.9175
120.599998	99.766	136.8404
122.000000	99.687	136.7935
124.099998	99.567	136.7486
125.000000	99.516	136.7334
126.500000	99.433	136.7114
128.000000	99.349	136.7001
131.500000	99.156	136.7095
132.000000	99.128	136.7122
134.000000	99.016	136.7324
136.000000	98.903	136.7665
138.000000	98.790	136.8109
140.000000	98.676	136.8705
143.000000	98.507	136.9799
145.000000	98.393	137.0826
147.500000	98.247	137.2675
150.000000	98.096	137.5361
152.500000	97.945	137.9407
155.000000	97.802	138.5336
157.500000	97.678	139.3024
160.000000	97.588	140.2525
162.500000	97.562	141.2680
165.000000	97.603	142.0701
167.500000	97.682	142.4198
170.000000	97.750	142.2882
172.500000	97.775	141.8389
175.000000	97.752	141.2891
177.500000	97.692	140.7816
180.000000	97.608	140.3933
182.500000	97.513	140.1227
185.000000	97.413	139.9353
187.500000	97.315	139.8236
190.000000	97.223	139.7789
192.500000	97.129	139.7742
195.000000	97.031	139.8093
197.500000	96.935	139.8417
200.000000	96.842	139.8843
203.000000	96.735	139.9799
206.000000	96.631	140.1010
209.000000	96.531	140.2369
212.000000	96.433	140.3930
214.000000	96.368	140.5021
218.000000	96.241	140.7271
220.000000	96.179	140.8455
224.000000	96.058	141.0931
227.000000	95.969	141.2855
230.000000	95.882	141.4910
233.000000	95.797	141.7120
236.000000	95.714	141.9379
240.000000	95.607	142.2476
243.000000	95.528	142.4951
247.000000	95.426	142.8314
250.000000	95.353	143.0773
254.000000	95.260	143.3994
258.000000	95.169	143.7253
262.000000	95.082	144.0521
265.000000	95.017	144.2926
269.000000	94.931	144.6027
272.000000	94.868	144.8287
276.000000	94.784	145.1295
280.000000	94.700	145.4374
285.000000	94.595	145.8377
290.000000	94.492	146.2434
295.000000	94.392	146.6610
300.000000	94.296	147.0943
304.000000	94.220	147.4525
307.000000	94.164	147.7229
311.000000	94.091	148.0841
315.000000	94.021	148.4525
320.000000	93.936	148.9274
325.000000	93.853	149.4143
330.000000	93.774	149.9081
335.000000	93.699	150.4058
340.000000	93.629	150.9026
345.000000	93.563	151.3976
350.000000	93.500	151.8843
355.000000	93.442	152.3577
360.000000	93.386	152.8178
365.000000	93.334	153.2659
370.000000	93.284	153.7022
375.000000	93.236	154.1313
382.000000	93.169	154.6959
387.000000	93.123	155.0659
395.000000	93.047	155.6317
400.000000	92.998	155.9774
406.000000	92.938	156.4000
412.000000	92.876	156.8321
418.000000	92.815	157.2658
425.000000	92.746	157.7788
431.000000	92.687	158.2202
437.000000	92.629	158.6613
444.000000	92.560	159.1833
450.000000	92.502	159.6392
455.000000	92.455	160.0244
462.000000	92.390	160.5727
468.000000	92.336	161.0529
475.000000	92.274	161.6202
482.000000	92.214	162.1905
487.000000	92.172	162.5977
494.000000	92.117	163.1696
500.000000	92.070	163.6646
508.000000	92.011	164.3336
515.000000	91.961	164.9213
522.000000	91.914	165.5082
530.000000	91.861	166.1792
538.000000	91.810	166.8509
545.000000	91.767	167.4447
552.000000	91.727	168.0412
560.000000	91.683	168.7217
570.000000	91.631	169.5687
580.000000	91.582	170.4175
590.000000	91.537	171.2727
600.000000	91.495	172.1336
608.000000	91.464	172.8222
615.000000	91.438	173.4239
622.000000	91.413	174.0254
630.000000	91.387	174.7147
640.000000	91.358	175.5802
650.000000	91.332	176.4465
660.000000	91.309	177.3129
670.000000	91.289	178.1790
680.000000	91.271	179.0510
690.000000	91.257	179.9274
700.000000	91.248	-179.1981
710.000000	91.241	-178.3228
720.000000	91.239	-177.4434
730.000000	91.240	-176.5660
740.000000	91.244	-175.6921
750.000000	91.251	-174.8154
762.000000	91.265	-173.7645
775.000000	91.287	-172.6347
788.000000	91.315	-171.5127
800.000000	91.346	-170.4869
812.000000	91.383	-169.4652
825.000000	91.430	-168.3665
838.000000	91.484	-167.2851
850.000000	91.541	-166.3048
862.000000	91.603	-165.3436
875.000000	91.678	-164.3302
885.000000	91.740	-163.5708
900.000000	91.840	-162.4666
912.000000	91.925	-161.6172
925.000000	92.022	-160.7324
938.000000	92.124	-159.8910
950.000000	92.222	-159.1536
962.000000	92.323	-158.4538
975.000000	92.437	-157.7424
988.000000	92.553	-157.0800
1000.000000	92.663	-156.5109
1015.000000	92.801	-155.8590
1030.000000	92.940	-155.2737
1044.000000	93.068	-154.7843
1060.000000	93.214	-154.2873
1075.000000	93.348	-153.8777
1090.000000	93.481	-153.5193
1106.000000	93.619	-153.1911
1120.000000	93.737	-152.9445
1138.000000	93.884	-152.6717
1150.000000	93.978	-152.5126
1172.000000	94.143	-152.2654
1180.000000	94.200	-152.1891
1206.000000	94.380	-151.9781
1220.000000	94.473	-151.8844
1241.000000	94.606	-151.7600
1250.000000	94.662	-151.7101
1265.000000	94.752	-151.6340
1280.000000	94.839	-151.5678
1315.000000	95.031	-151.4174
1320.000000	95.057	-151.3940
1340.000000	95.161	-151.3050
1360.000000	95.262	-151.2277
1380.000000	95.362	-151.1431
1400.000000	95.460	-151.0514
1430.000000	95.602	-150.9233
1450.000000	95.697	-150.8315
1475.000000	95.813	-150.7120
1500.000000	95.930	-150.5989
1525.000000	96.047	-150.4913
1550.000000	96.164	-150.3888
1575.000000	96.282	-150.2892
1600.000000	96.400	-150.1982
1625.000000	96.519	-150.1169
1650.000000	96.640	-150.0461
1675.000000	96.762	-149.9946
1700.000000	96.887	-149.9605
1725.000000	97.012	-149.9409
1750.000000	97.139	-149.9443
1775.000000	97.266	-149.9700
1800.000000	97.394	-150.0141
1825.000000	97.523	-150.0824
1850.000000	97.653	-150.1800
1875.000000	97.784	-150.3037
1900.000000	97.915	-150.4536
1925.000000	98.046	-150.6340
1950.000000	98.178	-150.8456
1975.000000	98.309	-151.0870
2000.000000	98.439	-151.3616
2030.000000	98.594	-151.7385
2060.000000	98.747	-152.1646
2090.000000	98.897	-152.6385
2120.000000	99.044	-153.1599
2140.000000	99.140	-153.5336
2180.000000	99.326	-154.3368
2200.000000	99.418	-154.7644
2240.000000	99.600	-155.6995
2270.000000	99.730	-156.4572
2300.000000	99.850	-157.2342
2330.000000	99.960	-158.0423
2360.000000	100.062	-158.8896
2400.000000	100.185	-160.0630
2430.000000	100.269	-160.9714
2470.000000	100.367	-162.2149
2500.000000	100.431	-163.1644
2540.000000	100.502	-164.4429
2580.000000	100.556	-165.7268
2620.000000	100.594	-167.0057
2650.000000	100.612	-167.9529
2690.000000	100.622	-169.1879
2720.000000	100.620	-170.0870
2760.000000	100.604	-171.2389
2800.000000	100.574	-172.3225
2850.000000	100.522	-173.5560
2900.000000	100.460	-174.6241
2950.000000	100.396	-175.5123
3000.000000	100.343	-176.2620
3040.000000	100.316	-176.8261
3070.000000	100.303	-177.2708
3110.000000	100.290	-177.9252
3150.000000	100.270	-178.6433
3200.000000	100.232	-179.5767
3250.000000	100.177	179.5150
3300.000000	100.110	178.6757
3350.000000	100.035	177.9182
3400.000000	99.957	177.2353
3450.000000	99.880	176.6156
3500.000000	99.804	176.0473
3550.000000	99.730	175.5160
3600.000000	99.657	175.0096
3650.000000	99.585	174.5179
3700.000000	99.510	174.0321
3750.000000	99.427	173.5636
3820.000000	99.294	172.9705
3870.000000	99.187	172.6440
3950.000000	99.017	172.6812
4000.000000	98.983	173.0386
4060.000000	99.033	173.0464
4120.000000	99.070	172.4059
4180.000000	99.049	171.6047
4250.000000	98.987	170.7471
4310.000000	98.923	170.0759
4370.000000	98.854	169.4423
4440.000000	98.769	168.7231
4500.000000	98.693	168.0971
4550.000000	98.626	167.5589
4620.000000	98.525	166.7798
4680.000000	98.427	166.0992
4750.000000	98.298	165.3123
4820.000000	98.152	164.5610
4870.000000	98.040	164.0619
4940.000000	97.872	163.4313
5000.000000	97.721	162.9592
5080.000000	97.512	162.4268
5150.000000	97.323	162.0510
5220.000000	97.131	161.7614
5300.000000	96.906	161.5397
5380.000000	96.679	161.4414
5450.000000	96.480	161.4636
5520.000000	96.281	161.5895
5600.000000	96.059	161.8592
5700.000000	95.790	162.3808
5800.000000	95.536	163.0943
5900.000000	95.301	163.9841
6000.000000	95.087	165.0386
6080.000000	94.934	165.9881
6150.000000	94.814	166.8853
6220.000000	94.708	167.8356
6300.000000	94.606	168.9781
6400.000000	94.509	170.4772
6500.000000	94.449	172.0332
6600.000000	94.428	173.6172
6700.000000	94.447	175.1980
6800.000000	94.508	176.7458
6900.000000	94.612	178.2340
7000.000000	94.763	179.6397
7100.000000	94.966	-179.0701
7200.000000	95.227	-177.9600
7300.000000	95.549	-177.1299
7400.000000	95.931	-176.6908
7500.000000	96.368	-176.7625
7620.000000	96.953	-177.7380
7750.000000	97.623	179.7660
7880.000000	98.247	175.4158
8000.000000	98.673	169.6356
8120.000000	98.845	162.4542
8250.000000	98.655	153.9876
8380.000000	98.061	146.0788
8500.000000	97.222	140.2032
8620.000000	96.209	136.0940
8750.000000	95.032	133.5947
8850.000000	94.130	132.8576
9000.000000	92.842	133.2643
9120.000000	91.893	134.5882
9250.000000	90.952	136.7585
9380.000000	90.102	139.5020
9500.000000	89.392	142.4261
9620.000000	88.746	145.6480
9750.000000	88.112	149.4138
9880.000000	87.539	153.4285
10000.000000	87.061	157.3387
10150.000000	86.526	162.5042
10300.000000	86.054	168.0796
10440.000000	85.695	173.8108
10600.000000	85.451	-179.1669
10750.000000	85.399	-172.5540
10900.000000	85.498	-166.0725
11060.000000	85.776	-159.4231
11200.000000	86.169	-154.0710
11380.000000	86.838	-148.1790
11500.000000	87.357	-144.9552
11720.000000	88.412	-140.4463
11800.000000	88.828	-139.2424
12060.000000	90.293	-137.0700
12200.000000	91.160	-137.1216
12410.000000	92.556	-139.4392
12500.000000	93.157	-141.5516
12650.000000	94.072	-146.9324
12800.000000	94.744	-154.6954
13150.000000	94.699	-177.2814
13200.000000	94.497	179.7653
13400.000000	93.322	170.3206
13600.000000	91.804	165.3402
13800.000000	90.311	164.2352
14000.000000	89.054	165.2413
14300.000000	87.575	168.9122
14500.000000	86.836	172.2517
14750.000000	86.166	176.8737
15000.000000	85.746	-178.4178
15250.000000	85.545	-173.9811
15500.000000	85.533	-170.1620
15750.000000	85.664	-167.3140
16000.000000	85.867	-165.7726
16250.000000	86.040	-165.7486
16500.000000	86.059	-167.1501
16750.000000	85.814	-169.3197
17000.000000	85.293	-171.1532
17250.000000	84.585	-172.0413
17500.000000	83.763	-171.7975
17750.000000	82.902	-170.3480
18000.000000	82.081	-167.9236
18250.000000	81.351	-164.9263
18500.000000	80.739	-161.8280
18750.000000	80.235	-159.1231
19000.000000	79.791	-157.2628
19250.000000	79.304	-156.5209
19500.000000	78.652	-156.8093
19750.000000	77.814	-157.6031
