* Measurement data measured by REW V5.20.13
* Source: EXCL: Headset (KM-HIFI-384KHZ), MICROPHONE (Master Volume), 0, volume: 0.250
* Format: 256k Log Swept Sine, 1 sweep at -13.0 dBFS with no timing reference
* Dated: Sep 9, 2023 6:34:49 PM
* REW Settings:
*  C-weighting compensation: Off
*  Target level: 75.0 dB
* Note: ; 
* Measurement: Olina SE R
* Smoothing: 1/24 octave
* Frequency Step: 1/48 octave
* Start Frequency: 20.000 Hz
*
* Freq(Hz)	SPL(dB)	Phase(degrees)
20.000000	101.648	-142.2661
20.299999	101.673	-143.0693
20.600000	101.698	-143.8543
20.900000	101.721	-144.6245
21.200001	101.744	-145.3823
21.400000	101.758	-145.8806
21.799999	101.785	-146.8586
22.000000	101.797	-147.3374
22.400000	101.820	-148.2722
22.700001	101.836	-148.9540
23.000000	101.851	-149.6207
23.299999	101.866	-150.2743
23.600000	101.879	-150.9163
24.000000	101.896	-151.7555
24.299999	101.907	-152.3720
24.700001	101.920	-153.1754
25.000000	101.928	-153.7626
25.400000	101.938	-154.5232
25.799999	101.946	-155.2585
26.200001	101.954	-155.9712
26.500000	101.960	-156.4943
26.900000	101.967	-157.1810
27.200001	101.972	-157.6897
27.600000	101.977	-158.3592
28.000000	101.980	-159.0159
28.500000	101.983	-159.8165
29.000000	101.984	-160.6000
29.500000	101.985	-161.3749
30.000000	101.982	-162.1415
30.400000	101.977	-162.7421
30.700001	101.973	-163.1811
31.100000	101.966	-163.7486
31.500000	101.958	-164.2961
32.000000	101.951	-164.9559
32.500000	101.945	-165.5962
33.000000	101.942	-166.2297
33.500000	101.939	-166.8659
34.000000	101.935	-167.4994
34.500000	101.928	-168.1098
35.000000	101.921	-168.6851
35.500000	101.917	-169.2392
36.000000	101.914	-169.7971
36.500000	101.910	-170.3629
37.000000	101.902	-170.9126
37.500000	101.891	-171.4266
38.200001	101.881	-172.1136
38.700001	101.875	-172.6189
39.500000	101.856	-173.4468
40.000000	101.839	-173.9362
40.599998	101.818	-174.4828
41.200001	101.800	-175.0143
41.799999	101.783	-175.5539
42.500000	101.761	-176.1885
43.099998	101.740	-176.7225
43.700001	101.718	-177.2401
44.400002	101.692	-177.8222
45.000000	101.672	-178.3076
45.500000	101.655	-178.7075
46.200001	101.632	-179.2601
46.799999	101.611	-179.7214
47.500000	101.587	179.7563
48.200001	101.564	179.2410
48.700001	101.547	178.8734
49.400002	101.520	178.3671
50.000000	101.496	177.9507
50.799999	101.465	177.4184
51.500000	101.438	176.9604
52.200001	101.412	176.5081
53.000000	101.381	176.0057
53.799999	101.350	175.5123
54.500000	101.323	175.0823
55.200001	101.295	174.6609
56.000000	101.262	174.1958
57.000000	101.221	173.6294
58.000000	101.179	173.0789
59.000000	101.136	172.5497
60.000000	101.095	172.0331
60.799999	101.061	171.6278
61.500000	101.032	171.2818
62.200001	101.004	170.9409
63.000000	100.972	170.5495
64.000000	100.930	170.0591
65.000000	100.884	169.5942
66.000000	100.840	169.1547
67.000000	100.797	168.7205
68.000000	100.753	168.2932
69.000000	100.708	167.8782
70.000000	100.663	167.4782
71.000000	100.619	167.0906
72.000000	100.574	166.7087
73.000000	100.530	166.3333
74.000000	100.484	165.9702
75.000000	100.439	165.6182
76.199997	100.385	165.2014
77.500000	100.325	164.7637
78.800003	100.265	164.3461
80.000000	100.209	163.9716
81.199997	100.153	163.6145
82.500000	100.092	163.2449
83.800003	100.032	162.8940
85.000000	99.978	162.5845
86.199997	99.924	162.2849
87.500000	99.868	161.9783
88.500000	99.827	161.7466
90.000000	99.767	161.3869
91.199997	99.717	161.0973
92.500000	99.661	160.7872
93.800003	99.605	160.4854
95.000000	99.551	160.2131
96.199997	99.496	159.9493
97.500000	99.436	159.6778
98.800003	99.376	159.4241
100.000000	99.322	159.1954
101.500000	99.254	158.9164
103.000000	99.186	158.6572
104.400002	99.121	158.4339
106.000000	99.046	158.2034
107.500000	98.975	158.0069
109.000000	98.904	157.8172
110.599998	98.827	157.6332
112.000000	98.761	157.4991
113.800003	98.680	157.3488
115.000000	98.626	157.2642
117.199997	98.521	157.1835
118.000000	98.483	157.1874
120.599998	98.374	157.2915
122.000000	98.328	157.3818
124.099998	98.282	157.5139
125.000000	98.269	157.5410
126.500000	98.255	157.5211
128.000000	98.240	157.4120
131.500000	98.174	156.9850
132.000000	98.161	156.9319
134.000000	98.107	156.7686
136.000000	98.059	156.6489
138.000000	98.019	156.4982
140.000000	97.980	156.2808
143.000000	97.911	155.8859
145.000000	97.857	155.6235
147.500000	97.782	155.3261
150.000000	97.702	155.0749
152.500000	97.620	154.8648
155.000000	97.539	154.6788
157.500000	97.457	154.5063
160.000000	97.376	154.3575
162.500000	97.297	154.2327
165.000000	97.218	154.1316
167.500000	97.139	154.0490
170.000000	97.062	153.9785
172.500000	96.985	153.9183
175.000000	96.910	153.8705
177.500000	96.835	153.8355
180.000000	96.761	153.8119
182.500000	96.687	153.7996
185.000000	96.613	153.7992
187.500000	96.540	153.8109
190.000000	96.467	153.8358
192.500000	96.395	153.8768
195.000000	96.323	153.9372
197.500000	96.252	154.0210
200.000000	96.182	154.1308
203.000000	96.101	154.2976
206.000000	96.026	154.4999
209.000000	95.958	154.7281
212.000000	95.900	154.9643
214.000000	95.866	155.1133
218.000000	95.808	155.3588
220.000000	95.780	155.4532
224.000000	95.722	155.6142
227.000000	95.678	155.7332
230.000000	95.635	155.8561
233.000000	95.595	155.9783
236.000000	95.560	156.0919
240.000000	95.518	156.2036
243.000000	95.486	156.2430
247.000000	95.439	156.2502
250.000000	95.399	156.2431
254.000000	95.341	156.2402
258.000000	95.280	156.2585
262.000000	95.216	156.2962
265.000000	95.168	156.3324
269.000000	95.103	156.3985
272.000000	95.054	156.4614
276.000000	94.990	156.5582
280.000000	94.927	156.6669
285.000000	94.850	156.8198
290.000000	94.774	156.9899
295.000000	94.701	157.1720
300.000000	94.630	157.3647
304.000000	94.575	157.5270
307.000000	94.534	157.6506
311.000000	94.482	157.8162
315.000000	94.430	157.9854
320.000000	94.367	158.2039
325.000000	94.306	158.4255
330.000000	94.247	158.6492
335.000000	94.190	158.8773
340.000000	94.134	159.1117
345.000000	94.079	159.3476
350.000000	94.026	159.5837
355.000000	93.975	159.8218
360.000000	93.925	160.0618
365.000000	93.876	160.3031
370.000000	93.829	160.5457
375.000000	93.784	160.7888
382.000000	93.721	161.1305
387.000000	93.678	161.3773
395.000000	93.611	161.7726
400.000000	93.571	162.0184
406.000000	93.523	162.3144
412.000000	93.478	162.6127
418.000000	93.434	162.9116
425.000000	93.384	163.2595
431.000000	93.342	163.5576
437.000000	93.302	163.8568
444.000000	93.257	164.2062
450.000000	93.219	164.5055
455.000000	93.188	164.7545
462.000000	93.147	165.1013
468.000000	93.113	165.4004
475.000000	93.074	165.7507
482.000000	93.036	166.0992
487.000000	93.010	166.3474
494.000000	92.974	166.6960
500.000000	92.945	166.9961
508.000000	92.908	167.3953
515.000000	92.876	167.7443
522.000000	92.845	168.0942
530.000000	92.812	168.4951
538.000000	92.780	168.8942
545.000000	92.753	169.2437
552.000000	92.727	169.5941
560.000000	92.699	169.9950
570.000000	92.665	170.4955
580.000000	92.633	170.9954
590.000000	92.604	171.4976
600.000000	92.576	172.0027
608.000000	92.556	172.4070
615.000000	92.539	172.7620
622.000000	92.523	173.1174
630.000000	92.506	173.5237
640.000000	92.486	174.0352
650.000000	92.468	174.5492
660.000000	92.452	175.0638
670.000000	92.438	175.5805
680.000000	92.426	176.0983
690.000000	92.416	176.6173
700.000000	92.409	177.1383
710.000000	92.403	177.6614
720.000000	92.400	178.1866
730.000000	92.399	178.7128
740.000000	92.400	179.2399
750.000000	92.403	179.7686
762.000000	92.410	-179.5944
775.000000	92.422	-178.9021
788.000000	92.438	-178.2081
800.000000	92.457	-177.5670
812.000000	92.481	-176.9286
825.000000	92.513	-176.2480
838.000000	92.548	-175.5816
850.000000	92.584	-174.9751
862.000000	92.624	-174.3749
875.000000	92.672	-173.7327
885.000000	92.712	-173.2457
900.000000	92.777	-172.5314
912.000000	92.835	-171.9797
925.000000	92.901	-171.4052
938.000000	92.972	-170.8558
950.000000	93.040	-170.3702
962.000000	93.111	-169.9051
975.000000	93.192	-169.4261
988.000000	93.276	-168.9768
1000.000000	93.357	-168.5911
1015.000000	93.462	-168.1501
1030.000000	93.569	-167.7563
1044.000000	93.672	-167.4336
1060.000000	93.790	-167.1199
1075.000000	93.902	-166.8779
1090.000000	94.014	-166.6845
1106.000000	94.132	-166.5313
1120.000000	94.234	-166.4416
1138.000000	94.362	-166.3827
1150.000000	94.445	-166.3749
1172.000000	94.592	-166.4189
1180.000000	94.643	-166.4523
1206.000000	94.803	-166.6152
1220.000000	94.883	-166.7304
1241.000000	94.998	-166.9311
1250.000000	95.044	-167.0254
1265.000000	95.118	-167.1909
1280.000000	95.188	-167.3644
1315.000000	95.339	-167.7881
1320.000000	95.359	-167.8497
1340.000000	95.435	-168.0950
1360.000000	95.507	-168.3367
1380.000000	95.575	-168.5728
1400.000000	95.639	-168.8016
1430.000000	95.730	-169.1267
1450.000000	95.787	-169.3329
1475.000000	95.857	-169.5824
1500.000000	95.924	-169.8230
1525.000000	95.988	-170.0542
1550.000000	96.051	-170.2763
1575.000000	96.111	-170.4871
1600.000000	96.171	-170.6862
1625.000000	96.230	-170.8758
1650.000000	96.288	-171.0574
1675.000000	96.347	-171.2319
1700.000000	96.406	-171.4006
1725.000000	96.465	-171.5643
1750.000000	96.525	-171.7245
1775.000000	96.585	-171.8816
1800.000000	96.646	-172.0372
1825.000000	96.707	-172.1928
1850.000000	96.769	-172.3481
1875.000000	96.832	-172.5033
1900.000000	96.895	-172.6606
1925.000000	96.959	-172.8207
1950.000000	97.024	-172.9835
1975.000000	97.089	-173.1501
2000.000000	97.155	-173.3211
2030.000000	97.236	-173.5318
2060.000000	97.317	-173.7500
2090.000000	97.399	-173.9765
2120.000000	97.481	-174.2118
2140.000000	97.537	-174.3736
2180.000000	97.648	-174.7098
2200.000000	97.704	-174.8848
2240.000000	97.815	-175.2487
2270.000000	97.899	-175.5315
2300.000000	97.983	-175.8213
2330.000000	98.066	-176.1178
2360.000000	98.150	-176.4187
2400.000000	98.260	-176.8207
2430.000000	98.343	-177.1171
2470.000000	98.454	-177.4945
2500.000000	98.541	-177.7579
2540.000000	98.665	-178.0845
2580.000000	98.805	-178.4150
2620.000000	98.962	-178.8191
2650.000000	99.088	-179.2113
2690.000000	99.256	-179.8705
2720.000000	99.378	179.5479
2760.000000	99.530	178.6949
2800.000000	99.671	177.7931
2850.000000	99.838	176.6359
2900.000000	99.997	175.4545
2950.000000	100.154	174.2294
3000.000000	100.309	172.9370
3040.000000	100.429	171.8433
3070.000000	100.517	170.9877
3110.000000	100.628	169.8045
3150.000000	100.733	168.5789
3200.000000	100.856	166.9932
3250.000000	100.968	165.3522
3300.000000	101.071	163.6608
3350.000000	101.163	161.9235
3400.000000	101.244	160.1433
3450.000000	101.314	158.3224
3500.000000	101.374	156.4628
3550.000000	101.425	154.5616
3600.000000	101.466	152.6054
3650.000000	101.496	150.5749
3700.000000	101.510	148.4556
3750.000000	101.503	146.2506
3820.000000	101.447	143.0614
3870.000000	101.368	140.7545
3950.000000	101.165	137.1390
4000.000000	100.988	135.0346
4060.000000	100.730	132.8083
4120.000000	100.446	131.0058
4180.000000	100.164	129.6197
4250.000000	99.865	128.3724
4310.000000	99.640	127.4579
4370.000000	99.435	126.5889
4440.000000	99.210	125.5913
4500.000000	99.023	124.7533
4550.000000	98.867	124.0773
4620.000000	98.649	123.1803
4680.000000	98.462	122.4670
4750.000000	98.244	121.7061
4820.000000	98.027	121.0234
4870.000000	97.874	120.5815
4940.000000	97.662	120.0211
5000.000000	97.481	119.5924
5080.000000	97.240	119.0982
5150.000000	97.027	118.7515
5220.000000	96.810	118.5157
5300.000000	96.560	118.4409
5380.000000	96.318	118.6371
5450.000000	96.126	119.0566
5520.000000	95.972	119.6673
5600.000000	95.858	120.4172
5700.000000	95.780	121.0840
5800.000000	95.713	121.4803
5900.000000	95.648	121.8544
6000.000000	95.597	122.2776
6080.000000	95.573	122.6405
6150.000000	95.565	122.9644
6220.000000	95.571	123.2858
6300.000000	95.595	123.6404
6400.000000	95.651	124.0484
6500.000000	95.736	124.3939
6600.000000	95.852	124.6529
6700.000000	95.999	124.8020
6800.000000	96.176	124.8141
6900.000000	96.385	124.6553
7000.000000	96.625	124.2856
7100.000000	96.892	123.6616
7200.000000	97.186	122.7308
7300.000000	97.497	121.4272
7400.000000	97.816	119.6924
7500.000000	98.125	117.4955
7620.000000	98.462	114.2549
7750.000000	98.756	110.0860
7880.000000	98.956	105.3806
8000.000000	99.050	100.6694
8120.000000	99.045	95.6833
8250.000000	98.912	90.0977
8380.000000	98.629	84.5539
8500.000000	98.233	79.7610
8620.000000	97.726	75.5377
8750.000000	97.087	71.7874
8850.000000	96.557	69.5260
9000.000000	95.742	67.1047
9120.000000	95.097	65.9196
9250.000000	94.424	65.2793
9380.000000	93.787	65.2015
9500.000000	93.237	65.5458
9620.000000	92.725	66.2262
9750.000000	92.213	67.2865
9880.000000	91.745	68.6368
10000.000000	91.350	70.1117
10150.000000	90.906	72.2432
10300.000000	90.520	74.6795
10440.000000	90.218	77.2296
10600.000000	89.943	80.5007
10750.000000	89.763	83.9607
10900.000000	89.676	87.8623
11060.000000	89.725	92.5594
11200.000000	89.940	97.0862
11380.000000	90.555	103.1447
11500.000000	91.224	106.9160
11720.000000	92.968	111.8064
11800.000000	93.725	112.5872
12060.000000	96.417	110.6113
12200.000000	97.951	106.5483
12410.000000	100.261	95.5468
12500.000000	101.159	88.4128
12650.000000	102.284	72.6471
12800.000000	102.659	53.1094
13150.000000	100.221	13.5638
13200.000000	99.616	10.0519
13400.000000	97.067	0.8976
13600.000000	94.709	-2.9436
13800.000000	92.736	-3.9325
14000.000000	91.126	-3.3533
14300.000000	89.261	-0.8652
14500.000000	88.322	1.2372
14750.000000	87.403	4.0452
15000.000000	86.726	6.9688
15250.000000	86.272	9.8226
15500.000000	86.030	12.4110
15750.000000	85.992	14.5067
16000.000000	86.151	15.8174
16250.000000	86.495	15.9341
16500.000000	86.992	14.2555
16750.000000	87.562	9.9799
17000.000000	88.039	2.2945
17250.000000	88.172	-9.0535
17500.000000	87.697	-22.8181
17750.000000	86.511	-36.3506
18000.000000	84.715	-47.3665
18250.000000	82.537	-55.1555
18500.000000	80.184	-60.1843
18750.000000	77.767	-62.9191
19000.000000	75.377	-63.9172
19250.000000	73.059	-63.8626
19500.000000	70.789	-63.1721
19750.000000	68.628	-62.1918
