* Measurement data measured by REW V5.20.13
* Source: Headset (KM-HIFI-384KHZ), MICROPHONE (Master Volume), L, volume: 0.250
* Format: 256k Log Swept Sine, 1 sweep at -13.0 dBFS with no timing reference
* Dated: Jul 20, 2023 2:40:54 AM
* REW Settings:
*  C-weighting compensation: Off
*  Target level: 75.0 dB
* Note: 
* Measurement: 7Hz Salnotes Zero L
* Smoothing: 1/12 octave
* Frequency Step: 1/48 octave
* Start Frequency: 20.000 Hz
*
* Freq(Hz)	SPL(dB)	Phase(degrees)
20.000000	100.052	-150.5207
20.299999	100.103	-151.3503
20.600000	100.128	-152.3544
20.900000	100.116	-153.4589
21.200001	100.062	-154.5378
21.400000	100.008	-155.1786
21.799999	99.877	-156.2298
22.000000	99.812	-156.6429
22.400000	99.699	-157.3191
22.700001	99.637	-157.7875
23.000000	99.594	-158.2944
23.299999	99.566	-158.8625
23.600000	99.548	-159.4922
24.000000	99.539	-160.4185
24.299999	99.542	-161.1724
24.700001	99.555	-162.2497
25.000000	99.569	-163.0940
25.400000	99.586	-164.2218
25.799999	99.606	-165.2913
26.200001	99.633	-166.2816
26.500000	99.660	-166.9979
26.900000	99.700	-167.9666
27.200001	99.723	-168.7194
27.600000	99.733	-169.7237
28.000000	99.709	-170.6205
28.500000	99.643	-171.4148
29.000000	99.571	-171.8015
29.500000	99.522	-171.9434
30.000000	99.498	-172.0715
30.400000	99.485	-172.2433
30.700001	99.476	-172.4144
31.100000	99.464	-172.6947
31.500000	99.457	-173.0549
32.000000	99.453	-173.6883
32.500000	99.442	-174.5833
33.000000	99.405	-175.6847
33.500000	99.330	-176.8333
34.000000	99.229	-177.8545
34.500000	99.120	-178.6592
35.000000	99.021	-179.2525
35.500000	98.941	-179.6781
36.000000	98.883	-179.9728
36.500000	98.848	179.8321
37.000000	98.834	179.6835
37.500000	98.838	179.5145
38.200001	98.850	179.1570
38.700001	98.845	178.8310
39.500000	98.806	178.3391
40.000000	98.773	178.0891
40.599998	98.737	177.7884
41.200001	98.705	177.3853
41.799999	98.665	176.8514
42.500000	98.599	176.1585
43.099998	98.534	175.6177
43.700001	98.476	175.1665
44.400002	98.433	174.7169
45.000000	98.421	174.3400
45.500000	98.423	173.9957
46.200001	98.434	173.4430
46.799999	98.435	172.9261
47.500000	98.415	172.3627
48.200001	98.375	171.9277
48.700001	98.339	171.7035
49.400002	98.284	171.4621
50.000000	98.234	171.2632
50.799999	98.154	170.9548
51.500000	98.069	170.6618
52.200001	97.977	170.3839
53.000000	97.876	170.0721
53.799999	97.790	169.7171
54.500000	97.725	169.3662
55.200001	97.671	168.9959
56.000000	97.619	168.5718
57.000000	97.566	168.1001
58.000000	97.521	167.7199
59.000000	97.474	167.3969
60.000000	97.413	167.1736
60.799999	97.360	167.0752
61.500000	97.316	167.0008
62.200001	97.274	166.8932
63.000000	97.228	166.7022
64.000000	97.165	166.3692
65.000000	97.093	166.0065
66.000000	97.022	165.7008
67.000000	96.963	165.4475
68.000000	96.916	165.1695
69.000000	96.865	164.8527
70.000000	96.808	164.5528
71.000000	96.750	164.2878
72.000000	96.695	164.0403
73.000000	96.644	163.8070
74.000000	96.596	163.5978
75.000000	96.552	163.4225
76.199997	96.501	163.2585
77.500000	96.442	163.1408
78.800003	96.379	163.0678
80.000000	96.317	162.9911
81.199997	96.248	162.8931
82.500000	96.173	162.7772
83.800003	96.101	162.6559
85.000000	96.039	162.5524
86.199997	95.983	162.4736
87.500000	95.930	162.3954
88.500000	95.889	162.3267
90.000000	95.821	162.2342
91.199997	95.761	162.1836
92.500000	95.692	162.1376
93.800003	95.622	162.0788
95.000000	95.556	162.0097
96.199997	95.492	161.9404
97.500000	95.429	161.8913
98.800003	95.376	161.8965
100.000000	95.337	161.9519
101.500000	95.297	162.0542
103.000000	95.253	162.1512
104.400002	95.201	162.2162
106.000000	95.131	162.2318
107.500000	95.061	162.1758
109.000000	94.992	162.0970
110.599998	94.927	162.0645
112.000000	94.882	162.1019
113.800003	94.835	162.2049
115.000000	94.807	162.2748
117.199997	94.750	162.3530
118.000000	94.726	162.3708
120.599998	94.645	162.4467
122.000000	94.601	162.5135
124.099998	94.539	162.6508
125.000000	94.514	162.7139
126.500000	94.475	162.8084
128.000000	94.439	162.8809
131.500000	94.356	162.9770
132.000000	94.344	162.9875
134.000000	94.292	163.0406
136.000000	94.238	163.1174
138.000000	94.182	163.2031
140.000000	94.127	163.2810
143.000000	94.053	163.3723
145.000000	94.010	163.4160
147.500000	93.959	163.4668
150.000000	93.904	163.5427
152.500000	93.844	163.6657
155.000000	93.781	163.8453
157.500000	93.718	164.0753
160.000000	93.655	164.3293
162.500000	93.592	164.5835
165.000000	93.534	164.8385
167.500000	93.483	165.0923
170.000000	93.439	165.3240
172.500000	93.399	165.5186
175.000000	93.362	165.6789
177.500000	93.332	165.8142
180.000000	93.309	165.9361
182.500000	93.288	166.0571
185.000000	93.266	166.1896
187.500000	93.244	166.3458
190.000000	93.220	166.5340
192.500000	93.193	166.7511
195.000000	93.161	166.9788
197.500000	93.127	167.1950
200.000000	93.091	167.3915
203.000000	93.049	167.6061
206.000000	93.006	167.7989
209.000000	92.965	167.9694
212.000000	92.926	168.1292
214.000000	92.900	168.2391
218.000000	92.849	168.4880
220.000000	92.825	168.6304
224.000000	92.781	168.9413
227.000000	92.751	169.1871
230.000000	92.722	169.4356
233.000000	92.693	169.6741
236.000000	92.668	169.8892
240.000000	92.640	170.1333
243.000000	92.623	170.2903
247.000000	92.599	170.4825
250.000000	92.579	170.6307
254.000000	92.547	170.8614
258.000000	92.512	171.1426
262.000000	92.476	171.4585
265.000000	92.449	171.7001
269.000000	92.415	172.0063
272.000000	92.390	172.2145
276.000000	92.359	172.4581
280.000000	92.331	172.6655
285.000000	92.304	172.8965
290.000000	92.283	173.1422
295.000000	92.262	173.4352
300.000000	92.235	173.7717
304.000000	92.210	174.0569
307.000000	92.190	174.2740
311.000000	92.163	174.5640
315.000000	92.138	174.8523
320.000000	92.111	175.2036
325.000000	92.089	175.5315
330.000000	92.072	175.8271
335.000000	92.058	176.0979
340.000000	92.045	176.3615
345.000000	92.030	176.6354
350.000000	92.013	176.9315
355.000000	91.994	177.2537
360.000000	91.971	177.5953
365.000000	91.948	177.9400
370.000000	91.926	178.2698
375.000000	91.908	178.5746
382.000000	91.890	178.9636
387.000000	91.881	179.2253
395.000000	91.876	179.6364
400.000000	91.875	179.8973
406.000000	91.876	-179.7854
412.000000	91.877	-179.4705
418.000000	91.878	-179.1635
425.000000	91.878	-178.8135
431.000000	91.876	-178.5130
437.000000	91.871	-178.2071
444.000000	91.861	-177.8443
450.000000	91.850	-177.5316
455.000000	91.838	-177.2702
462.000000	91.818	-176.9008
468.000000	91.800	-176.5805
475.000000	91.780	-176.2052
482.000000	91.762	-175.8332
487.000000	91.751	-175.5729
494.000000	91.740	-175.2191
500.000000	91.735	-174.9264
508.000000	91.733	-174.5516
515.000000	91.735	-174.2365
522.000000	91.737	-173.9290
530.000000	91.735	-173.5737
538.000000	91.727	-173.1945
545.000000	91.716	-172.8337
552.000000	91.700	-172.4506
560.000000	91.681	-172.0038
570.000000	91.661	-171.4637
580.000000	91.651	-170.9621
590.000000	91.652	-170.4898
600.000000	91.660	-170.0233
608.000000	91.670	-169.6427
615.000000	91.679	-169.3020
622.000000	91.687	-168.9547
630.000000	91.693	-168.5503
640.000000	91.699	-168.0324
650.000000	91.703	-167.5005
660.000000	91.708	-166.9592
670.000000	91.718	-166.4210
680.000000	91.733	-165.9001
690.000000	91.755	-165.3987
700.000000	91.779	-164.9054
710.000000	91.802	-164.4028
720.000000	91.822	-163.8804
730.000000	91.838	-163.3406
740.000000	91.849	-162.7921
750.000000	91.857	-162.2402
762.000000	91.866	-161.5732
775.000000	91.880	-160.8451
788.000000	91.902	-160.1222
800.000000	91.935	-159.4717
812.000000	91.979	-158.8412
825.000000	92.039	-158.1779
838.000000	92.107	-157.5281
850.000000	92.172	-156.9340
862.000000	92.236	-156.3390
875.000000	92.301	-155.6902
885.000000	92.350	-155.1910
900.000000	92.420	-154.4518
912.000000	92.478	-153.8754
925.000000	92.546	-153.2713
938.000000	92.621	-152.6940
950.000000	92.698	-152.1892
962.000000	92.783	-151.7147
975.000000	92.884	-151.2365
988.000000	92.989	-150.7941
1000.000000	93.087	-150.4120
1015.000000	93.205	-149.9571
1030.000000	93.314	-149.5067
1044.000000	93.406	-149.0672
1060.000000	93.510	-148.5298
1075.000000	93.616	-148.0321
1090.000000	93.735	-147.6342
1106.000000	93.863	-147.3851
1120.000000	93.964	-147.2714
1138.000000	94.080	-147.1609
1150.000000	94.153	-147.0826
1172.000000	94.285	-146.9325
1180.000000	94.333	-146.8798
1206.000000	94.484	-146.7222
1220.000000	94.562	-146.6461
1241.000000	94.676	-146.5455
1250.000000	94.724	-146.5079
1265.000000	94.803	-146.4523
1280.000000	94.882	-146.4053
1315.000000	95.068	-146.3329
1320.000000	95.094	-146.3266
1340.000000	95.199	-146.3065
1360.000000	95.300	-146.2869
1380.000000	95.393	-146.2623
1400.000000	95.477	-146.2311
1430.000000	95.592	-146.1713
1450.000000	95.666	-146.1284
1475.000000	95.761	-146.0816
1500.000000	95.863	-146.0482
1525.000000	95.972	-146.0248
1550.000000	96.083	-146.0018
1575.000000	96.192	-145.9760
1600.000000	96.299	-145.9503
1625.000000	96.402	-145.9232
1650.000000	96.501	-145.8954
1675.000000	96.600	-145.8756
1700.000000	96.699	-145.8692
1725.000000	96.799	-145.8724
1750.000000	96.898	-145.8815
1775.000000	96.996	-145.8974
1800.000000	97.093	-145.9226
1825.000000	97.189	-145.9570
1850.000000	97.284	-145.9978
1875.000000	97.380	-146.0455
1900.000000	97.477	-146.1020
1925.000000	97.578	-146.1668
1950.000000	97.685	-146.2424
1975.000000	97.797	-146.3331
2000.000000	97.915	-146.4427
2030.000000	98.063	-146.6072
2060.000000	98.212	-146.8166
2090.000000	98.357	-147.0656
2120.000000	98.493	-147.3386
2140.000000	98.578	-147.5284
2180.000000	98.740	-147.9297
2200.000000	98.819	-148.1487
2240.000000	98.976	-148.6414
2270.000000	99.094	-149.0613
2300.000000	99.210	-149.5206
2330.000000	99.324	-150.0141
2360.000000	99.435	-150.5363
2400.000000	99.579	-151.2688
2430.000000	99.683	-151.8419
2470.000000	99.817	-152.6394
2500.000000	99.914	-153.2637
2540.000000	100.035	-154.1251
2580.000000	100.145	-155.0120
2620.000000	100.243	-155.9240
2650.000000	100.310	-156.6250
2690.000000	100.391	-157.5794
2720.000000	100.445	-158.3064
2760.000000	100.509	-159.2855
2800.000000	100.564	-160.2698
2850.000000	100.618	-161.4951
2900.000000	100.659	-162.6978
2950.000000	100.688	-163.8574
3000.000000	100.707	-164.9520
3040.000000	100.718	-165.7661
3070.000000	100.725	-166.3334
3110.000000	100.733	-167.0247
3150.000000	100.745	-167.6468
3200.000000	100.774	-168.3757
3250.000000	100.825	-169.1546
3300.000000	100.894	-170.1020
3350.000000	100.959	-171.2670
3400.000000	101.003	-172.5996
3450.000000	101.013	-173.9972
3500.000000	100.990	-175.3689
3550.000000	100.941	-176.6636
3600.000000	100.874	-177.8621
3650.000000	100.792	-178.9630
3700.000000	100.699	-179.9746
3750.000000	100.599	179.0903
3820.000000	100.454	177.8805
3870.000000	100.351	177.0722
3950.000000	100.189	175.8686
4000.000000	100.088	175.1733
4060.000000	99.965	174.4016
4120.000000	99.843	173.7003
4180.000000	99.724	173.0718
4250.000000	99.590	172.4295
4310.000000	99.477	171.9384
4370.000000	99.366	171.4762
4440.000000	99.229	170.9506
4500.000000	99.101	170.5073
4550.000000	98.986	170.1477
4620.000000	98.814	169.6705
4680.000000	98.658	169.2966
4750.000000	98.475	168.9118
4820.000000	98.294	168.5850
4870.000000	98.169	168.3854
4940.000000	98.001	168.1509
5000.000000	97.863	167.9924
5080.000000	97.680	167.8521
5150.000000	97.517	167.8173
5220.000000	97.350	167.8920
5300.000000	97.154	168.1322
5380.000000	96.960	168.5302
5450.000000	96.797	168.9819
5520.000000	96.642	169.5055
5600.000000	96.474	170.1761
5700.000000	96.284	171.1273
5800.000000	96.125	172.2181
5900.000000	96.015	173.3925
6000.000000	95.950	174.5175
6080.000000	95.913	175.3513
6150.000000	95.883	176.0679
6220.000000	95.855	176.8028
6300.000000	95.832	177.6779
6400.000000	95.822	178.8137
6500.000000	95.840	179.9669
6600.000000	95.890	-178.8944
6700.000000	95.977	-177.8035
6800.000000	96.107	-176.7991
6900.000000	96.286	-175.9270
7000.000000	96.518	-175.2408
7100.000000	96.802	-174.8085
7200.000000	97.132	-174.7211
7300.000000	97.501	-175.0884
7400.000000	97.898	-176.0233
7500.000000	98.305	-177.6339
7620.000000	98.777	179.4025
7750.000000	99.214	174.7971
7880.000000	99.497	168.7766
8000.000000	99.556	162.2506
8120.000000	99.381	155.3139
8250.000000	98.915	148.0670
8380.000000	98.194	141.7985
8500.000000	97.351	137.2762
8620.000000	96.397	134.0905
8750.000000	95.296	132.0711
8850.000000	94.437	131.4043
9000.000000	93.173	131.5861
9120.000000	92.210	132.5475
9250.000000	91.230	134.2247
9380.000000	90.316	136.4284
9500.000000	89.528	138.8447
9620.000000	88.786	141.5776
9750.000000	88.027	144.8691
9880.000000	87.306	148.5085
10000.000000	86.668	152.2062
10150.000000	85.907	157.3607
10300.000000	85.192	163.2250
10440.000000	84.585	169.4556
10600.000000	84.009	177.5729
10750.000000	83.661	-173.8664
10900.000000	83.612	-164.6313
11060.000000	83.999	-154.7041
11200.000000	84.707	-146.8098
11380.000000	85.924	-139.0601
11500.000000	86.771	-135.8374
11720.000000	88.128	-133.6548
11800.000000	88.530	-133.7130
12060.000000	89.541	-135.1351
12200.000000	89.970	-136.0332
12410.000000	90.579	-137.2763
12500.000000	90.844	-137.8472
12650.000000	91.301	-139.0274
12800.000000	91.765	-140.6996
13150.000000	92.707	-147.4778
13200.000000	92.805	-148.8027
13400.000000	93.053	-154.8063
13600.000000	93.035	-161.3918
13800.000000	92.744	-167.6797
14000.000000	92.226	-172.9054
14300.000000	91.210	-178.0104
14500.000000	90.505	-179.7281
14750.000000	89.720	179.3965
15000.000000	89.115	179.1168
15250.000000	88.701	178.5543
15500.000000	88.426	176.9452
15750.000000	88.177	173.7952
16000.000000	87.809	169.1086
16250.000000	87.188	163.5410
16500.000000	86.245	158.2278
16750.000000	84.983	154.3127
17000.000000	83.466	152.5235
17250.000000	81.790	153.0476
17500.000000	80.057	155.6639
17750.000000	78.356	159.9391
18000.000000	76.751	165.3893
18250.000000	75.262	171.6484
18500.000000	73.876	178.6056
18750.000000	72.582	-173.7498
19000.000000	71.398	-165.6740
19250.000000	70.325	-157.5668
19500.000000	69.360	-149.8631
19750.000000	68.566	-143.4234
