* Measurement data measured by REW V5.20.13
* Source: Headset (KM-HIFI-384KHZ), MICROPHONE (Master Volume), R, volume: 0.250
* Format: 256k Log Swept Sine, 1 sweep at -13.0 dBFS with no timing reference
* Dated: Jul 20, 2023 2:38:35 AM
* REW Settings:
*  C-weighting compensation: Off
*  Target level: 75.0 dB
* Note: 
* Measurement: 7Hz Salnotes Zero R
* Smoothing: 1/12 octave
* Frequency Step: 1/48 octave
* Start Frequency: 20.000 Hz
*
* Freq(Hz)	SPL(dB)	Phase(degrees)
20.000000	99.949	-150.0300
20.299999	99.941	-150.6724
20.600000	99.937	-151.2571
20.900000	99.938	-151.8296
21.200001	99.942	-152.4192
21.400000	99.944	-152.8309
21.799999	99.947	-153.7157
22.000000	99.946	-154.1966
22.400000	99.932	-155.2418
22.700001	99.906	-156.0753
23.000000	99.864	-156.8991
23.299999	99.807	-157.6486
23.600000	99.746	-158.2819
24.000000	99.674	-158.9328
24.299999	99.641	-159.3280
24.700001	99.632	-159.8517
25.000000	99.646	-160.3217
25.400000	99.677	-161.0953
25.799999	99.705	-161.9953
26.200001	99.724	-162.9367
26.500000	99.733	-163.6324
26.900000	99.741	-164.5314
27.200001	99.744	-165.1848
27.600000	99.742	-166.0228
28.000000	99.730	-166.7988
28.500000	99.706	-167.6460
29.000000	99.678	-168.3604
29.500000	99.648	-168.9741
30.000000	99.618	-169.5008
30.400000	99.599	-169.8732
30.700001	99.590	-170.1505
31.100000	99.584	-170.5762
31.500000	99.577	-171.1068
32.000000	99.544	-171.8777
32.500000	99.480	-172.5871
33.000000	99.409	-173.0702
33.500000	99.366	-173.3873
34.000000	99.364	-173.7801
34.500000	99.376	-174.4173
35.000000	99.369	-175.2403
35.500000	99.334	-176.0556
36.000000	99.283	-176.7340
36.500000	99.231	-177.2711
37.000000	99.186	-177.7045
37.500000	99.150	-178.0492
38.200001	99.126	-178.4510
38.700001	99.132	-178.8105
39.500000	99.142	-179.7289
40.000000	99.120	179.5610
40.599998	99.062	178.7675
41.200001	98.992	178.1506
41.799999	98.932	177.6777
42.500000	98.886	177.2000
43.099998	98.867	176.7862
43.700001	98.861	176.3227
44.400002	98.861	175.6861
45.000000	98.851	175.0842
45.500000	98.830	174.5973
46.200001	98.785	174.0130
46.799999	98.739	173.6205
47.500000	98.686	173.2348
48.200001	98.631	172.8526
48.700001	98.586	172.5681
49.400002	98.513	172.1832
50.000000	98.448	171.8990
50.799999	98.371	171.5812
51.500000	98.328	171.2919
52.200001	98.305	170.9131
53.000000	98.291	170.3421
53.799999	98.272	169.7100
54.500000	98.251	169.2133
55.200001	98.231	168.8005
56.000000	98.211	168.3777
57.000000	98.169	167.8599
58.000000	98.086	167.4343
59.000000	97.971	167.2296
60.000000	97.859	167.2227
60.799999	97.787	167.2122
61.500000	97.734	167.1284
62.200001	97.687	166.9862
63.000000	97.641	166.7835
64.000000	97.598	166.4715
65.000000	97.561	166.0972
66.000000	97.516	165.7339
67.000000	97.460	165.4803
68.000000	97.402	165.3316
69.000000	97.344	165.1803
70.000000	97.276	164.9749
71.000000	97.194	164.7639
72.000000	97.108	164.6141
73.000000	97.036	164.5258
74.000000	96.988	164.4175
75.000000	96.956	164.1998
76.199997	96.909	163.7975
77.500000	96.827	163.4019
78.800003	96.737	163.2169
80.000000	96.671	163.1364
81.199997	96.622	163.0151
82.500000	96.579	162.7908
83.800003	96.530	162.4999
85.000000	96.472	162.2534
86.199997	96.404	162.0868
87.500000	96.325	161.9891
88.500000	96.264	161.9547
90.000000	96.178	161.9504
91.199997	96.120	161.9617
92.500000	96.071	161.9479
93.800003	96.031	161.8847
95.000000	95.994	161.7809
96.199997	95.951	161.6485
97.500000	95.895	161.5031
98.800003	95.832	161.3801
100.000000	95.772	161.2902
101.500000	95.700	161.2061
103.000000	95.633	161.1496
104.400002	95.571	161.1298
106.000000	95.501	161.1533
107.500000	95.434	161.2039
109.000000	95.367	161.2542
110.599998	95.297	161.2800
112.000000	95.240	161.2798
113.800003	95.173	161.2676
115.000000	95.135	161.2651
117.199997	95.078	161.2667
118.000000	95.059	161.2628
120.599998	94.990	161.2424
122.000000	94.947	161.2408
124.099998	94.878	161.2541
125.000000	94.849	161.2616
126.500000	94.799	161.2795
128.000000	94.750	161.3201
131.500000	94.635	161.5294
132.000000	94.617	161.5708
134.000000	94.547	161.7638
136.000000	94.481	161.9664
138.000000	94.421	162.1262
140.000000	94.367	162.2344
143.000000	94.294	162.3428
145.000000	94.248	162.4077
147.500000	94.192	162.4879
150.000000	94.136	162.5831
152.500000	94.080	162.7138
155.000000	94.025	162.8750
157.500000	93.972	163.0394
160.000000	93.919	163.1873
162.500000	93.864	163.3240
165.000000	93.808	163.4653
167.500000	93.755	163.6275
170.000000	93.706	163.8115
172.500000	93.661	164.0037
175.000000	93.618	164.1964
177.500000	93.577	164.3878
180.000000	93.538	164.5691
182.500000	93.498	164.7344
185.000000	93.458	164.8879
187.500000	93.418	165.0343
190.000000	93.382	165.1779
192.500000	93.348	165.3260
195.000000	93.315	165.4829
197.500000	93.283	165.6465
200.000000	93.251	165.8167
203.000000	93.211	166.0342
206.000000	93.168	166.2629
209.000000	93.124	166.4850
212.000000	93.082	166.6894
214.000000	93.056	166.8195
218.000000	93.004	167.0862
220.000000	92.978	167.2267
224.000000	92.927	167.5175
227.000000	92.890	167.7390
230.000000	92.856	167.9587
233.000000	92.824	168.1738
236.000000	92.793	168.3812
240.000000	92.753	168.6419
243.000000	92.723	168.8326
247.000000	92.685	169.0933
250.000000	92.658	169.2932
254.000000	92.624	169.5641
258.000000	92.590	169.8463
262.000000	92.555	170.1425
265.000000	92.528	170.3708
269.000000	92.495	170.6736
272.000000	92.471	170.8911
276.000000	92.442	171.1628
280.000000	92.415	171.4210
285.000000	92.382	171.7430
290.000000	92.349	172.0783
295.000000	92.317	172.4265
300.000000	92.287	172.7800
304.000000	92.264	173.0648
307.000000	92.246	173.2762
311.000000	92.221	173.5495
315.000000	92.196	173.8133
320.000000	92.167	174.1438
325.000000	92.140	174.4902
330.000000	92.115	174.8507
335.000000	92.094	175.2107
340.000000	92.075	175.5556
345.000000	92.060	175.8780
350.000000	92.048	176.1793
355.000000	92.038	176.4674
360.000000	92.029	176.7534
365.000000	92.022	177.0450
370.000000	92.014	177.3436
375.000000	92.005	177.6440
382.000000	91.990	178.0539
387.000000	91.978	178.3356
395.000000	91.956	178.7788
400.000000	91.940	179.0612
406.000000	91.920	179.4139
412.000000	91.900	179.7779
418.000000	91.882	-179.8589
425.000000	91.863	-179.4477
431.000000	91.851	-179.1103
437.000000	91.845	-178.7916
444.000000	91.842	-178.4418
450.000000	91.841	-178.1472
455.000000	91.842	-177.8985
462.000000	91.843	-177.5466
468.000000	91.842	-177.2432
475.000000	91.837	-176.8857
482.000000	91.829	-176.5247
487.000000	91.820	-176.2647
494.000000	91.806	-175.8961
500.000000	91.793	-175.5758
508.000000	91.775	-175.1478
515.000000	91.761	-174.7810
522.000000	91.748	-174.4259
530.000000	91.738	-174.0282
538.000000	91.732	-173.6311
545.000000	91.729	-173.2848
552.000000	91.729	-172.9434
560.000000	91.730	-172.5611
570.000000	91.730	-172.0864
580.000000	91.728	-171.5945
590.000000	91.723	-171.0732
600.000000	91.719	-170.5342
608.000000	91.717	-170.1130
615.000000	91.716	-169.7605
622.000000	91.717	-169.4182
630.000000	91.720	-169.0264
640.000000	91.724	-168.5195
650.000000	91.727	-167.9881
660.000000	91.730	-167.4404
670.000000	91.737	-166.8972
680.000000	91.749	-166.3729
690.000000	91.764	-165.8631
700.000000	91.780	-165.3551
710.000000	91.796	-164.8343
720.000000	91.810	-164.2913
730.000000	91.822	-163.7302
740.000000	91.833	-163.1617
750.000000	91.848	-162.5951
762.000000	91.874	-161.9326
775.000000	91.911	-161.2469
788.000000	91.956	-160.5740
800.000000	91.999	-159.9416
812.000000	92.043	-159.2931
825.000000	92.089	-158.5859
838.000000	92.137	-157.8876
850.000000	92.186	-157.2517
862.000000	92.239	-156.6263
875.000000	92.304	-155.9697
885.000000	92.359	-155.4828
900.000000	92.446	-154.7796
912.000000	92.519	-154.2349
925.000000	92.598	-153.6559
938.000000	92.678	-153.0879
950.000000	92.753	-152.5811
962.000000	92.833	-152.1046
975.000000	92.923	-151.6374
988.000000	93.019	-151.2293
1000.000000	93.110	-150.9058
1015.000000	93.225	-150.5795
1030.000000	93.332	-150.3586
1044.000000	93.414	-150.2363
1060.000000	93.477	-150.0662
1075.000000	93.520	-149.6938
1090.000000	93.579	-149.1035
1106.000000	93.676	-148.4370
1120.000000	93.778	-147.9567
1138.000000	93.916	-147.5096
1150.000000	94.007	-147.2951
1172.000000	94.171	-147.0181
1180.000000	94.230	-146.9433
1206.000000	94.418	-146.7576
1220.000000	94.513	-146.6804
1241.000000	94.644	-146.5772
1250.000000	94.697	-146.5354
1265.000000	94.779	-146.4695
1280.000000	94.855	-146.4104
1315.000000	95.019	-146.2905
1320.000000	95.042	-146.2747
1340.000000	95.134	-146.2182
1360.000000	95.228	-146.1736
1380.000000	95.325	-146.1376
1400.000000	95.425	-146.1065
1430.000000	95.575	-146.0642
1450.000000	95.673	-146.0354
1475.000000	95.789	-145.9958
1500.000000	95.898	-145.9445
1525.000000	96.002	-145.8916
1550.000000	96.101	-145.8485
1575.000000	96.198	-145.8051
1600.000000	96.293	-145.7591
1625.000000	96.387	-145.7203
1650.000000	96.481	-145.6902
1675.000000	96.577	-145.6644
1700.000000	96.675	-145.6423
1725.000000	96.775	-145.6290
1750.000000	96.880	-145.6305
1775.000000	96.989	-145.6493
1800.000000	97.099	-145.6818
1825.000000	97.209	-145.7218
1850.000000	97.318	-145.7675
1875.000000	97.426	-145.8247
1900.000000	97.535	-145.8989
1925.000000	97.645	-145.9909
1950.000000	97.754	-146.0983
1975.000000	97.864	-146.2197
2000.000000	97.971	-146.3545
2030.000000	98.097	-146.5317
2060.000000	98.221	-146.7259
2090.000000	98.345	-146.9450
2120.000000	98.472	-147.1980
2140.000000	98.557	-147.3857
2180.000000	98.729	-147.8039
2200.000000	98.813	-148.0362
2240.000000	98.978	-148.5486
2270.000000	99.095	-148.9677
2300.000000	99.206	-149.4124
2330.000000	99.312	-149.8829
2360.000000	99.415	-150.3802
2400.000000	99.549	-151.0842
2430.000000	99.646	-151.6418
2470.000000	99.772	-152.4196
2500.000000	99.864	-153.0267
2540.000000	99.983	-153.8689
2580.000000	100.099	-154.7467
2620.000000	100.209	-155.6563
2650.000000	100.286	-156.3546
2690.000000	100.380	-157.3002
2720.000000	100.441	-158.0186
2760.000000	100.513	-158.9852
2800.000000	100.573	-159.9569
2850.000000	100.633	-161.1713
2900.000000	100.676	-162.3710
2950.000000	100.703	-163.5327
3000.000000	100.715	-164.6327
3040.000000	100.715	-165.4489
3070.000000	100.710	-166.0123
3110.000000	100.702	-166.6887
3150.000000	100.695	-167.2801
3200.000000	100.701	-167.9301
3250.000000	100.733	-168.5661
3300.000000	100.788	-169.3188
3350.000000	100.854	-170.2882
3400.000000	100.907	-171.4763
3450.000000	100.932	-172.7961
3500.000000	100.926	-174.1369
3550.000000	100.894	-175.4254
3600.000000	100.844	-176.6321
3650.000000	100.780	-177.7436
3700.000000	100.703	-178.7606
3750.000000	100.618	-179.7048
3820.000000	100.493	179.0681
3870.000000	100.402	178.2523
3950.000000	100.252	177.0359
4000.000000	100.156	176.3242
4060.000000	100.038	175.5176
4120.000000	99.917	174.7611
4180.000000	99.794	174.0529
4250.000000	99.651	173.2795
4310.000000	99.529	172.6540
4370.000000	99.403	172.0655
4440.000000	99.246	171.4352
4500.000000	99.101	170.9514
4550.000000	98.973	170.5954
4620.000000	98.786	170.1807
4680.000000	98.624	169.9127
4750.000000	98.436	169.7109
4820.000000	98.252	169.6222
4870.000000	98.125	169.6180
4940.000000	97.958	169.6793
5000.000000	97.823	169.7792
5080.000000	97.657	169.9568
5150.000000	97.520	170.1392
5220.000000	97.389	170.3390
5300.000000	97.242	170.5908
5380.000000	97.096	170.8789
5450.000000	96.971	171.1697
5520.000000	96.848	171.5071
5600.000000	96.714	171.9663
5700.000000	96.559	172.6764
5800.000000	96.427	173.5322
5900.000000	96.325	174.4440
6000.000000	96.244	175.3209
6080.000000	96.184	176.0156
6150.000000	96.135	176.6519
6220.000000	96.093	177.3289
6300.000000	96.058	178.1491
6400.000000	96.041	179.2210
6500.000000	96.060	-179.6855
6600.000000	96.117	-178.6034
6700.000000	96.216	-177.5681
6800.000000	96.361	-176.6204
6900.000000	96.553	-175.8079
7000.000000	96.794	-175.1858
7100.000000	97.082	-174.8243
7200.000000	97.416	-174.8132
7300.000000	97.790	-175.2603
7400.000000	98.195	-176.2838
7500.000000	98.614	-178.0047
7620.000000	99.100	178.8539
7750.000000	99.540	173.9952
7880.000000	99.807	167.6879
8000.000000	99.831	160.9289
8120.000000	99.607	153.8584
8250.000000	99.083	146.6281
8380.000000	98.308	140.5377
8500.000000	97.427	136.2699
8620.000000	96.447	133.3649
8750.000000	95.334	131.6282
8850.000000	94.477	131.1471
9000.000000	93.236	131.5499
9120.000000	92.302	132.6406
9250.000000	91.360	134.4085
9380.000000	90.490	136.6390
9500.000000	89.744	139.0067
9620.000000	89.048	141.6058
9750.000000	88.338	144.6429
9880.000000	87.663	147.9001
10000.000000	87.062	151.1196
10150.000000	86.332	155.4925
10300.000000	85.629	160.3557
10440.000000	85.008	165.4402
10600.000000	84.364	171.9920
10750.000000	83.855	178.9129
10900.000000	83.484	-173.3805
11060.000000	83.327	-164.3540
11200.000000	83.482	-156.0141
11380.000000	84.176	-145.5165
11500.000000	84.919	-139.3708
11720.000000	86.554	-131.5360
11800.000000	87.145	-129.9886
12060.000000	88.782	-128.9798
12200.000000	89.457	-130.0201
12410.000000	90.274	-132.3109
12500.000000	90.580	-133.4047
12650.000000	91.060	-135.3765
12800.000000	91.512	-137.6626
13150.000000	92.385	-145.0953
13200.000000	92.474	-146.4339
13400.000000	92.696	-152.3462
13600.000000	92.673	-158.6974
13800.000000	92.398	-164.7392
14000.000000	91.917	-169.8031
14300.000000	90.973	-174.8868
14500.000000	90.322	-176.7171
14750.000000	89.607	-177.8434
15000.000000	89.070	-178.4697
15250.000000	88.718	-179.4430
15500.000000	88.488	178.4842
15750.000000	88.258	174.8364
16000.000000	87.876	169.6886
16250.000000	87.210	163.8129
16500.000000	86.197	158.4407
16750.000000	84.852	154.7101
17000.000000	83.254	153.2300
17250.000000	81.508	154.0190
17500.000000	79.717	156.7054
17750.000000	77.954	160.8130
18000.000000	76.245	166.0865
18250.000000	74.581	172.6258
18500.000000	72.994	-179.5945
18750.000000	71.551	-171.0978
19000.000000	70.274	-162.4230
19250.000000	69.142	-153.8952
19500.000000	68.150	-145.9747
19750.000000	67.357	-139.5581
