* Measurement data measured by REW V5.20.13
* Source: Headset (KM-HIFI-384KHZ), MICROPHONE (Master Volume), L, volume: 0.250
* Format: 256k Log Swept Sine, 1 sweep at -13.0 dBFS with no timing reference
* Dated: Jul 20, 2023 3:26:39 AM
* REW Settings:
*  C-weighting compensation: Off
*  Target level: 75.0 dB
* Note: ; 
* Measurement: Supernova L
* Smoothing: 1/24 octave
* Frequency Step: 1/48 octave
* Start Frequency: 20.000 Hz
*
* Freq(Hz)	SPL(dB)	Phase(degrees)
20.000000	99.304	-175.1388
20.299999	99.304	-175.7363
20.600000	99.309	-176.3394
20.900000	99.317	-176.9602
21.200001	99.322	-177.5923
21.400000	99.324	-178.0097
21.799999	99.325	-178.8202
22.000000	99.325	-179.2090
22.400000	99.327	-179.9566
22.700001	99.331	179.4955
23.000000	99.337	178.9443
23.299999	99.342	178.3836
23.600000	99.347	177.8136
24.000000	99.350	177.0466
24.299999	99.348	176.4743
24.700001	99.342	175.7245
25.000000	99.335	175.1765
25.400000	99.325	174.4679
25.799999	99.313	173.7838
26.200001	99.304	173.1130
26.500000	99.299	172.6056
26.900000	99.292	171.9073
27.200001	99.285	171.3653
27.600000	99.270	170.6360
28.000000	99.247	169.9408
28.500000	99.218	169.1675
29.000000	99.203	168.4615
29.500000	99.204	167.7083
30.000000	99.201	166.8515
30.400000	99.186	166.1550
30.700001	99.166	165.6812
31.100000	99.140	165.1548
31.500000	99.125	164.7245
32.000000	99.129	164.1993
32.500000	99.147	163.5639
33.000000	99.156	162.8179
33.500000	99.148	162.0518
34.000000	99.127	161.3345
34.500000	99.099	160.6844
35.000000	99.068	160.1159
35.500000	99.044	159.6281
36.000000	99.038	159.1386
36.500000	99.044	158.5153
37.000000	99.035	157.7204
37.500000	98.995	156.8946
38.200001	98.908	156.0325
38.700001	98.864	155.6279
39.500000	98.848	154.8677
40.000000	98.838	154.2238
40.599998	98.806	153.4407
41.200001	98.769	152.7742
41.799999	98.743	152.1600
42.500000	98.718	151.4001
43.099998	98.689	150.7433
43.700001	98.656	150.1310
44.400002	98.619	149.4579
45.000000	98.587	148.8959
45.500000	98.561	148.4404
46.200001	98.530	147.8115
46.799999	98.507	147.2460
47.500000	98.481	146.5302
48.200001	98.450	145.7792
48.700001	98.424	145.2433
49.400002	98.385	144.5159
50.000000	98.350	143.9268
50.799999	98.310	143.1807
51.500000	98.279	142.5244
52.200001	98.246	141.8617
53.000000	98.203	141.1431
53.799999	98.163	140.4594
54.500000	98.127	139.8666
55.200001	98.090	139.2926
56.000000	98.053	138.6441
57.000000	98.005	137.7992
58.000000	97.955	136.9814
59.000000	97.911	136.1651
60.000000	97.865	135.3317
60.799999	97.826	134.7002
61.500000	97.795	134.1575
62.200001	97.764	133.6060
63.000000	97.726	132.9768
64.000000	97.675	132.2205
65.000000	97.627	131.4862
66.000000	97.580	130.7526
67.000000	97.535	130.0534
68.000000	97.499	129.3542
69.000000	97.463	128.6049
70.000000	97.420	127.8750
71.000000	97.379	127.1767
72.000000	97.337	126.4584
73.000000	97.289	125.7524
74.000000	97.242	125.0787
75.000000	97.199	124.3897
76.199997	97.144	123.5373
77.500000	97.081	122.6483
78.800003	97.023	121.7919
80.000000	96.970	121.0082
81.199997	96.917	120.2465
82.500000	96.859	119.4547
83.800003	96.805	118.6721
85.000000	96.754	117.9453
86.199997	96.704	117.2182
87.500000	96.648	116.4371
88.500000	96.605	115.8483
90.000000	96.542	114.9815
91.199997	96.492	114.3020
92.500000	96.438	113.5800
93.800003	96.384	112.8677
95.000000	96.335	112.2134
96.199997	96.286	111.5615
97.500000	96.234	110.8631
98.800003	96.183	110.1757
100.000000	96.138	109.5560
101.500000	96.085	108.7885
103.000000	96.030	108.0212
104.400002	95.976	107.3164
106.000000	95.911	106.5309
107.500000	95.849	105.8212
109.000000	95.790	105.1261
110.599998	95.733	104.3997
112.000000	95.687	103.7690
113.800003	95.634	102.9545
115.000000	95.601	102.4060
117.199997	95.535	101.3914
118.000000	95.509	101.0294
120.599998	95.419	99.8603
122.000000	95.369	99.2484
124.099998	95.296	98.3542
125.000000	95.267	97.9789
126.500000	95.219	97.3652
128.000000	95.172	96.7680
131.500000	95.062	95.4210
132.000000	95.046	95.2305
134.000000	94.983	94.4696
136.000000	94.921	93.7154
138.000000	94.862	92.9725
140.000000	94.804	92.2422
143.000000	94.719	91.1747
145.000000	94.663	90.4781
147.500000	94.595	89.6154
150.000000	94.526	88.7743
152.500000	94.458	87.9579
155.000000	94.392	87.1544
157.500000	94.328	86.3607
160.000000	94.265	85.6006
162.500000	94.202	84.8547
165.000000	94.138	84.1198
167.500000	94.076	83.3825
170.000000	94.012	82.6803
172.500000	93.952	82.0129
175.000000	93.891	81.3456
177.500000	93.830	80.7157
180.000000	93.774	80.0975
182.500000	93.715	79.4799
185.000000	93.654	78.9143
187.500000	93.596	78.3901
190.000000	93.539	77.8664
192.500000	93.478	77.3589
195.000000	93.414	76.9102
197.500000	93.354	76.5348
200.000000	93.299	76.2205
203.000000	93.246	75.8850
206.000000	93.201	75.5727
209.000000	93.161	75.3344
212.000000	93.137	75.1974
214.000000	93.133	75.1407
218.000000	93.164	74.9994
220.000000	93.200	74.8520
224.000000	93.294	74.3123
227.000000	93.368	73.6991
230.000000	93.432	72.9306
233.000000	93.484	72.0210
236.000000	93.515	70.9954
240.000000	93.519	69.5557
243.000000	93.496	68.5020
247.000000	93.445	67.2292
250.000000	93.398	66.3984
254.000000	93.330	65.4319
258.000000	93.259	64.5817
262.000000	93.190	63.8282
265.000000	93.143	63.3336
269.000000	93.093	62.7490
272.000000	93.064	62.3383
276.000000	93.035	61.7790
280.000000	93.012	61.1790
285.000000	92.982	60.3773
290.000000	92.944	59.5476
295.000000	92.901	58.7347
300.000000	92.858	57.9635
304.000000	92.822	57.3854
307.000000	92.795	56.9717
311.000000	92.761	56.4455
315.000000	92.726	55.9489
320.000000	92.683	55.3573
325.000000	92.642	54.7918
330.000000	92.603	54.2490
335.000000	92.564	53.7145
340.000000	92.528	53.1931
345.000000	92.493	52.6945
350.000000	92.460	52.2286
355.000000	92.428	51.7893
360.000000	92.398	51.3630
365.000000	92.369	50.9420
370.000000	92.342	50.5229
375.000000	92.315	50.1107
382.000000	92.276	49.5667
387.000000	92.250	49.2091
395.000000	92.214	48.6773
400.000000	92.191	48.3522
406.000000	92.163	47.9674
412.000000	92.138	47.5888
418.000000	92.114	47.2163
425.000000	92.087	46.8041
431.000000	92.064	46.4887
437.000000	92.041	46.2013
444.000000	92.017	45.8703
450.000000	91.998	45.5812
455.000000	91.984	45.3441
462.000000	91.963	45.0275
468.000000	91.945	44.7720
475.000000	91.926	44.5038
482.000000	91.908	44.2741
487.000000	91.894	44.1230
494.000000	91.875	43.9118
500.000000	91.860	43.7286
508.000000	91.844	43.4904
515.000000	91.831	43.2935
522.000000	91.819	43.1091
530.000000	91.805	42.9152
538.000000	91.792	42.7402
545.000000	91.780	42.5983
552.000000	91.767	42.4662
560.000000	91.754	42.3311
570.000000	91.741	42.1782
580.000000	91.729	42.0398
590.000000	91.717	41.9316
600.000000	91.708	41.8466
608.000000	91.701	41.7916
615.000000	91.696	41.7555
622.000000	91.691	41.7315
630.000000	91.686	41.7157
640.000000	91.683	41.7105
650.000000	91.682	41.7204
660.000000	91.682	41.7437
670.000000	91.684	41.7892
680.000000	91.690	41.8599
690.000000	91.697	41.9441
700.000000	91.707	42.0293
710.000000	91.720	42.1096
720.000000	91.735	42.1916
730.000000	91.751	42.2782
740.000000	91.767	42.3683
750.000000	91.784	42.4659
762.000000	91.804	42.5995
775.000000	91.826	42.7623
788.000000	91.849	42.9478
800.000000	91.872	43.1503
812.000000	91.896	43.3846
825.000000	91.925	43.6751
838.000000	91.961	43.9999
850.000000	92.001	44.3156
862.000000	92.047	44.6404
875.000000	92.104	45.0024
885.000000	92.154	45.2774
900.000000	92.236	45.6642
912.000000	92.305	45.9467
925.000000	92.385	46.2324
938.000000	92.469	46.5049
950.000000	92.548	46.7368
962.000000	92.630	46.9432
975.000000	92.723	47.1393
988.000000	92.822	47.3061
1000.000000	92.916	47.4305
1015.000000	93.036	47.5398
1030.000000	93.157	47.6094
1044.000000	93.267	47.6590
1060.000000	93.389	47.7005
1075.000000	93.502	47.7031
1090.000000	93.616	47.6589
1106.000000	93.740	47.5721
1120.000000	93.848	47.4664
1138.000000	93.986	47.2878
1150.000000	94.074	47.1495
1172.000000	94.229	46.8783
1180.000000	94.284	46.7712
1206.000000	94.455	46.3734
1220.000000	94.545	46.1355
1241.000000	94.678	45.7592
1250.000000	94.734	45.5915
1265.000000	94.824	45.3071
1280.000000	94.911	45.0211
1315.000000	95.100	44.3369
1320.000000	95.125	44.2388
1340.000000	95.222	43.8550
1360.000000	95.316	43.4825
1380.000000	95.409	43.1026
1400.000000	95.502	42.7103
1430.000000	95.642	42.1347
1450.000000	95.734	41.7545
1475.000000	95.845	41.2700
1500.000000	95.951	40.8000
1525.000000	96.050	40.3540
1550.000000	96.149	39.8969
1575.000000	96.250	39.4198
1600.000000	96.353	38.9429
1625.000000	96.456	38.4599
1650.000000	96.556	37.9648
1675.000000	96.653	37.4739
1700.000000	96.747	36.9810
1725.000000	96.841	36.4664
1750.000000	96.937	35.9264
1775.000000	97.033	35.3703
1800.000000	97.128	34.8020
1825.000000	97.222	34.2169
1850.000000	97.312	33.6125
1875.000000	97.398	32.9962
1900.000000	97.481	32.3698
1925.000000	97.561	31.7202
1950.000000	97.639	31.0423
1975.000000	97.715	30.3494
2000.000000	97.787	29.6489
2030.000000	97.869	28.7860
2060.000000	97.947	27.8945
2090.000000	98.018	26.9902
2120.000000	98.083	26.0759
2140.000000	98.123	25.4578
2180.000000	98.195	24.2004
2200.000000	98.227	23.5657
2240.000000	98.279	22.2974
2270.000000	98.309	21.3491
2300.000000	98.332	20.4000
2330.000000	98.350	19.4532
2360.000000	98.361	18.5155
2400.000000	98.365	17.2883
2430.000000	98.362	16.3846
2470.000000	98.348	15.2053
2500.000000	98.331	14.3444
2540.000000	98.299	13.2329
2580.000000	98.258	12.1651
2620.000000	98.211	11.1360
2650.000000	98.173	10.3921
2690.000000	98.117	9.4438
2720.000000	98.072	8.7660
2760.000000	98.007	7.9022
2800.000000	97.936	7.0881
2850.000000	97.845	6.1385
2900.000000	97.751	5.2405
2950.000000	97.656	4.4070
3000.000000	97.560	3.6262
3040.000000	97.481	3.0306
3070.000000	97.421	2.6088
3110.000000	97.336	2.0840
3150.000000	97.249	1.6012
3200.000000	97.139	1.0585
3250.000000	97.030	0.5944
3300.000000	96.923	0.2231
3350.000000	96.820	-0.0579
3400.000000	96.725	-0.2617
3450.000000	96.640	-0.3979
3500.000000	96.562	-0.4758
3550.000000	96.494	-0.5135
3600.000000	96.436	-0.5261
3650.000000	96.388	-0.5190
3700.000000	96.349	-0.5004
3750.000000	96.319	-0.4771
3820.000000	96.290	-0.4413
3870.000000	96.278	-0.4221
3950.000000	96.272	-0.4097
4000.000000	96.276	-0.4158
4060.000000	96.288	-0.4442
4120.000000	96.306	-0.4999
4180.000000	96.330	-0.5856
4250.000000	96.365	-0.7348
4310.000000	96.401	-0.9095
4370.000000	96.439	-1.1288
4440.000000	96.484	-1.4438
4500.000000	96.521	-1.7626
4550.000000	96.551	-2.0623
4620.000000	96.590	-2.5303
4680.000000	96.619	-2.9667
4750.000000	96.648	-3.5049
4820.000000	96.671	-4.0668
4870.000000	96.684	-4.4771
4940.000000	96.697	-5.0524
5000.000000	96.703	-5.5411
5080.000000	96.706	-6.1812
5150.000000	96.703	-6.7249
5220.000000	96.696	-7.2469
5300.000000	96.682	-7.8118
5380.000000	96.662	-8.3413
5450.000000	96.641	-8.7750
5520.000000	96.613	-9.1583
5600.000000	96.573	-9.4699
5700.000000	96.537	-9.5944
5800.000000	96.539	-9.6505
5900.000000	96.548	-9.7664
6000.000000	96.560	-9.8362
6080.000000	96.575	-9.8222
6150.000000	96.596	-9.7554
6220.000000	96.625	-9.6392
6300.000000	96.671	-9.4562
6400.000000	96.756	-9.1764
6500.000000	96.872	-8.8621
6600.000000	97.021	-8.5411
6700.000000	97.210	-8.2683
6800.000000	97.449	-8.1053
6900.000000	97.739	-8.1214
7000.000000	98.081	-8.4142
7100.000000	98.473	-9.1138
7200.000000	98.905	-10.3765
7300.000000	99.356	-12.3907
7400.000000	99.786	-15.3503
7500.000000	100.134	-19.3812
7620.000000	100.332	-25.4760
7750.000000	100.132	-32.4852
7880.000000	99.481	-37.5281
8000.000000	98.724	-38.5776
8120.000000	98.261	-36.4377
8250.000000	98.458	-33.4304
8380.000000	99.213	-33.2861
8500.000000	99.951	-37.2087
8620.000000	100.375	-44.4260
8750.000000	100.294	-53.7850
8850.000000	99.859	-60.4995
9000.000000	98.776	-68.1099
9120.000000	97.717	-71.7769
9250.000000	96.527	-73.6672
9380.000000	95.380	-73.9059
9500.000000	94.395	-73.0570
9620.000000	93.489	-71.4541
9750.000000	92.596	-69.0826
9880.000000	91.787	-66.2181
10000.000000	91.111	-63.2477
10150.000000	90.358	-59.2166
10300.000000	89.699	-54.9365
10440.000000	89.160	-50.7924
10600.000000	88.627	-45.9548
10750.000000	88.202	-41.3815
10900.000000	87.841	-36.8179
11060.000000	87.515	-31.9946
11200.000000	87.275	-27.8470
11380.000000	87.027	-22.6446
11500.000000	86.895	-19.2413
11720.000000	86.736	-13.1260
11800.000000	86.709	-10.9897
12060.000000	86.708	-4.7038
12200.000000	86.732	-1.7288
12410.000000	86.776	2.3207
12500.000000	86.794	3.9229
12650.000000	86.817	6.4392
12800.000000	86.828	8.8153
13150.000000	86.791	14.0438
13200.000000	86.777	14.7644
13400.000000	86.693	17.6429
13600.000000	86.558	20.6274
13800.000000	86.377	23.8710
14000.000000	86.159	27.5583
14300.000000	85.833	34.2961
14500.000000	85.699	39.4975
14750.000000	85.668	46.2687
15000.000000	85.788	52.9366
15250.000000	86.014	59.1322
15500.000000	86.348	65.1413
15750.000000	86.920	70.7730
16000.000000	87.809	74.8064
16250.000000	88.942	75.3803
16500.000000	89.975	70.2483
16750.000000	90.306	59.0525
17000.000000	89.491	46.2840
17250.000000	87.630	38.1941
17500.000000	85.255	36.9671
17750.000000	82.936	41.1513
18000.000000	81.038	48.4929
18250.000000	79.685	56.9710
18500.000000	78.785	65.2480
18750.000000	78.149	73.0916
19000.000000	77.656	80.9329
19250.000000	77.281	89.1386
19500.000000	77.029	97.6335
19750.000000	76.889	105.4085
