* Measurement data measured by REW V5.20.13
* Source: EXCL: Headset (KM-HIFI-384KHZ), MICROPHONE (Master Volume), 0, volume: 1.000
* Format: 256k Log Swept Sine, 1 sweep at -13.0 dBFS with no timing reference
* Dated: Aug 12, 2023 12:33:18 PM
* REW Settings:
*  C-weighting compensation: Off
*  Target level: 75.0 dB
* Note: 
* Measurement: Aug 12
* Smoothing: 1/24 octave
* Frequency Step: 1/48 octave
* Start Frequency: 20.000 Hz
*
* Freq(Hz)	SPL(dB)	Phase(degrees)
20.000000	101.169	-145.6222
20.299999	101.205	-146.5231
20.600000	101.221	-147.4359
20.900000	101.217	-148.2728
21.200001	101.206	-148.9648
21.400000	101.204	-149.3493
21.799999	101.222	-150.0266
22.000000	101.244	-150.3790
22.400000	101.303	-151.2366
22.700001	101.342	-152.0381
23.000000	101.360	-152.9143
23.299999	101.355	-153.7464
23.600000	101.335	-154.4441
24.000000	101.312	-155.1089
24.299999	101.316	-155.4757
24.700001	101.360	-155.9776
25.000000	101.409	-156.4831
25.400000	101.466	-157.3628
25.799999	101.491	-158.3332
26.200001	101.487	-159.1851
26.500000	101.479	-159.6877
26.900000	101.482	-160.2284
27.200001	101.498	-160.6292
27.600000	101.526	-161.2564
28.000000	101.540	-161.9833
28.500000	101.526	-162.8447
29.000000	101.498	-163.4654
29.500000	101.493	-163.9154
30.000000	101.517	-164.4363
30.400000	101.539	-164.9892
30.700001	101.547	-165.4612
31.100000	101.545	-166.0966
31.500000	101.532	-166.6836
32.000000	101.514	-167.3270
32.500000	101.503	-167.9074
33.000000	101.502	-168.4753
33.500000	101.507	-169.0641
34.000000	101.514	-169.6908
34.500000	101.516	-170.3357
35.000000	101.512	-170.9481
35.500000	101.508	-171.4967
36.000000	101.513	-172.0174
36.500000	101.522	-172.5754
37.000000	101.525	-173.1869
37.500000	101.515	-173.7932
38.200001	101.486	-174.5049
38.700001	101.471	-174.9156
39.500000	101.467	-175.5775
40.000000	101.468	-176.0596
40.599998	101.464	-176.6952
41.200001	101.448	-177.3402
41.799999	101.426	-177.9505
42.500000	101.398	-178.5924
43.099998	101.382	-179.0990
43.700001	101.376	-179.6208
44.400002	101.371	179.6959
45.000000	101.356	179.0751
45.500000	101.337	178.5963
46.200001	101.308	178.0323
46.799999	101.294	177.6036
47.500000	101.285	177.0777
48.200001	101.274	176.5223
48.700001	101.263	176.1346
49.400002	101.244	175.6157
50.000000	101.228	175.1876
50.799999	101.206	174.6434
51.500000	101.192	174.1585
52.200001	101.175	173.6165
53.000000	101.140	172.9824
53.799999	101.098	172.4407
54.500000	101.068	172.0097
55.200001	101.042	171.5560
56.000000	101.006	171.0500
57.000000	100.967	170.5106
58.000000	100.948	169.9382
59.000000	100.924	169.2315
60.000000	100.879	168.5226
60.799999	100.839	168.0275
61.500000	100.807	167.6127
62.200001	100.777	167.1842
63.000000	100.741	166.6906
64.000000	100.694	166.0919
65.000000	100.645	165.5229
66.000000	100.598	165.0238
67.000000	100.561	164.5641
68.000000	100.531	164.0607
69.000000	100.496	163.4996
70.000000	100.449	162.9276
71.000000	100.395	162.3887
72.000000	100.341	161.8718
73.000000	100.287	161.3646
74.000000	100.235	160.8826
75.000000	100.188	160.4133
76.199997	100.134	159.8803
77.500000	100.081	159.3162
78.800003	100.021	158.7371
80.000000	99.958	158.2505
81.199997	99.892	157.7755
82.500000	99.816	157.3073
83.800003	99.752	156.8691
85.000000	99.701	156.3777
86.199997	99.639	155.8448
87.500000	99.562	155.3344
88.500000	99.502	154.9967
90.000000	99.419	154.5316
91.199997	99.355	154.1273
92.500000	99.282	153.6772
93.800003	99.208	153.2513
95.000000	99.142	152.8716
96.199997	99.077	152.5215
97.500000	99.008	152.1711
98.800003	98.937	151.8341
100.000000	98.867	151.5334
101.500000	98.776	151.1661
103.000000	98.686	150.7874
104.400002	98.603	150.4301
106.000000	98.510	150.0175
107.500000	98.421	149.6689
109.000000	98.332	149.3533
110.599998	98.236	149.0304
112.000000	98.155	148.7570
113.800003	98.058	148.3992
115.000000	97.995	148.1550
117.199997	97.876	147.7562
118.000000	97.831	147.6248
120.599998	97.677	147.2342
122.000000	97.593	147.0451
124.099998	97.475	146.7567
125.000000	97.427	146.6235
126.500000	97.348	146.4082
128.000000	97.269	146.2172
131.500000	97.076	145.8405
132.000000	97.048	145.7964
134.000000	96.934	145.6328
136.000000	96.823	145.4741
138.000000	96.714	145.3304
140.000000	96.604	145.2235
143.000000	96.440	145.0841
145.000000	96.330	145.0020
147.500000	96.197	144.9331
150.000000	96.068	144.8793
152.500000	95.933	144.8696
155.000000	95.803	144.8967
157.500000	95.676	144.9209
160.000000	95.556	144.9218
162.500000	95.445	144.9175
165.000000	95.339	144.9703
167.500000	95.229	145.0563
170.000000	95.120	145.1514
172.500000	95.019	145.3504
175.000000	94.907	145.7355
177.500000	94.764	146.1315
180.000000	94.611	146.2986
182.500000	94.493	146.2599
185.000000	94.407	146.2441
187.500000	94.324	146.3957
190.000000	94.232	146.6491
192.500000	94.141	146.9434
195.000000	94.051	147.2408
197.500000	93.957	147.5005
200.000000	93.866	147.7400
203.000000	93.766	148.0890
206.000000	93.666	148.4793
209.000000	93.563	148.8348
212.000000	93.467	149.2016
214.000000	93.405	149.4679
218.000000	93.287	150.0271
220.000000	93.233	150.3119
224.000000	93.120	150.8092
227.000000	93.035	151.1583
230.000000	92.961	151.5430
233.000000	92.890	151.9666
236.000000	92.816	152.3910
240.000000	92.720	152.9507
243.000000	92.649	153.3843
247.000000	92.561	153.9462
250.000000	92.495	154.3668
254.000000	92.404	154.9677
258.000000	92.328	155.5860
262.000000	92.259	156.2021
265.000000	92.205	156.6745
269.000000	92.133	157.3406
272.000000	92.081	157.8741
276.000000	92.024	158.6117
280.000000	91.984	159.3795
285.000000	91.959	160.3219
290.000000	91.954	161.1434
295.000000	91.955	161.8276
300.000000	91.946	162.4001
304.000000	91.932	162.7446
307.000000	91.919	162.9747
311.000000	91.901	163.3044
315.000000	91.878	163.6510
320.000000	91.845	164.1091
325.000000	91.819	164.5987
330.000000	91.796	165.0757
335.000000	91.772	165.5287
340.000000	91.748	165.9842
345.000000	91.727	166.4175
350.000000	91.710	166.8224
355.000000	91.689	167.2950
360.000000	91.665	167.7686
365.000000	91.646	168.1841
370.000000	91.629	168.5907
375.000000	91.613	168.9969
382.000000	91.596	169.5652
387.000000	91.585	169.9565
395.000000	91.570	170.5618
400.000000	91.560	170.9408
406.000000	91.548	171.3849
412.000000	91.536	171.8242
418.000000	91.525	172.2687
425.000000	91.511	172.7983
431.000000	91.500	173.2517
437.000000	91.488	173.7072
444.000000	91.478	174.2679
450.000000	91.478	174.7792
455.000000	91.489	175.2103
462.000000	91.538	175.6695
468.000000	91.581	175.6895
475.000000	91.542	175.5600
482.000000	91.467	176.0527
487.000000	91.461	176.5381
494.000000	91.470	176.9747
500.000000	91.463	177.2640
508.000000	91.445	177.7075
515.000000	91.427	178.1162
522.000000	91.408	178.5244
530.000000	91.391	179.0361
538.000000	91.376	179.5835
545.000000	91.367	-179.9111
552.000000	91.365	-179.3945
560.000000	91.373	-178.8243
570.000000	91.398	-178.1907
580.000000	91.424	-177.6989
590.000000	91.441	-177.3120
600.000000	91.445	-176.9322
608.000000	91.446	-176.5862
615.000000	91.444	-176.2585
622.000000	91.441	-175.9198
630.000000	91.442	-175.5273
640.000000	91.445	-175.0251
650.000000	91.444	-174.5095
660.000000	91.445	-173.9861
670.000000	91.449	-173.4582
680.000000	91.452	-172.9130
690.000000	91.454	-172.3568
700.000000	91.458	-171.7996
710.000000	91.464	-171.2239
720.000000	91.470	-170.6344
730.000000	91.479	-170.0392
740.000000	91.491	-169.4332
750.000000	91.505	-168.8187
762.000000	91.524	-168.0676
775.000000	91.548	-167.2278
788.000000	91.579	-166.3770
800.000000	91.612	-165.5776
812.000000	91.652	-164.7664
825.000000	91.702	-163.8780
838.000000	91.762	-162.9749
850.000000	91.826	-162.1327
862.000000	91.901	-161.2938
875.000000	91.998	-160.4039
885.000000	92.084	-159.7527
900.000000	92.232	-158.8690
912.000000	92.365	-158.2883
925.000000	92.514	-157.8116
938.000000	92.660	-157.4885
950.000000	92.785	-157.3153
962.000000	92.895	-157.2223
975.000000	92.997	-157.1539
988.000000	93.085	-157.0759
1000.000000	93.157	-156.9748
1015.000000	93.242	-156.7976
1030.000000	93.326	-156.5710
1044.000000	93.406	-156.3389
1060.000000	93.501	-156.0662
1075.000000	93.593	-155.8145
1090.000000	93.688	-155.5767
1106.000000	93.791	-155.3434
1120.000000	93.882	-155.1602
1138.000000	93.998	-154.9551
1150.000000	94.075	-154.8390
1172.000000	94.214	-154.6671
1180.000000	94.263	-154.6161
1206.000000	94.420	-154.4866
1220.000000	94.503	-154.4361
1241.000000	94.623	-154.3840
1250.000000	94.673	-154.3684
1265.000000	94.755	-154.3478
1280.000000	94.835	-154.3325
1315.000000	95.015	-154.3169
1320.000000	95.039	-154.3160
1340.000000	95.136	-154.3114
1360.000000	95.229	-154.3031
1380.000000	95.319	-154.2910
1400.000000	95.407	-154.2740
1430.000000	95.538	-154.2390
1450.000000	95.625	-154.2157
1475.000000	95.735	-154.1843
1500.000000	95.845	-154.1427
1525.000000	95.956	-154.0947
1550.000000	96.069	-154.0463
1575.000000	96.185	-154.0024
1600.000000	96.302	-153.9612
1625.000000	96.421	-153.9207
1650.000000	96.543	-153.8883
1675.000000	96.669	-153.8719
1700.000000	96.800	-153.8719
1725.000000	96.935	-153.8877
1750.000000	97.071	-153.9192
1775.000000	97.210	-153.9690
1800.000000	97.351	-154.0435
1825.000000	97.495	-154.1475
1850.000000	97.643	-154.2808
1875.000000	97.793	-154.4461
1900.000000	97.947	-154.6471
1925.000000	98.104	-154.8867
1950.000000	98.263	-155.1690
1975.000000	98.425	-155.4957
2000.000000	98.587	-155.8663
2030.000000	98.783	-156.3713
2060.000000	98.985	-156.9463
2090.000000	99.192	-157.6252
2120.000000	99.399	-158.4093
2140.000000	99.535	-158.9707
2180.000000	99.795	-160.1906
2200.000000	99.921	-160.8679
2240.000000	100.166	-162.3570
2270.000000	100.342	-163.5916
2300.000000	100.506	-164.9289
2330.000000	100.655	-166.3568
2360.000000	100.790	-167.8623
2400.000000	100.943	-169.9771
2430.000000	101.037	-171.6297
2470.000000	101.131	-173.8934
2500.000000	101.177	-175.6115
2540.000000	101.204	-177.8923
2580.000000	101.192	179.8830
2620.000000	101.146	177.7639
2650.000000	101.092	176.2666
2690.000000	100.998	174.4107
2720.000000	100.915	173.1315
2760.000000	100.791	171.5845
2800.000000	100.656	170.2208
2850.000000	100.482	168.7601
2900.000000	100.307	167.5480
2950.000000	100.136	166.5592
3000.000000	99.972	165.7602
3040.000000	99.850	165.2372
3070.000000	99.765	164.9024
3110.000000	99.660	164.5210
3150.000000	99.564	164.2100
3200.000000	99.460	163.9104
3250.000000	99.374	163.6871
3300.000000	99.308	163.5199
3350.000000	99.263	163.3882
3400.000000	99.235	163.2846
3450.000000	99.231	163.1891
3500.000000	99.256	163.0320
3550.000000	99.305	162.8184
3600.000000	99.371	162.5353
3650.000000	99.452	162.1435
3700.000000	99.547	161.6288
3750.000000	99.652	160.9771
3820.000000	99.810	159.8212
3870.000000	99.926	158.8254
3950.000000	100.108	156.9183
4000.000000	100.213	155.5309
4060.000000	100.322	153.6921
4120.000000	100.408	151.6942
4180.000000	100.466	149.5758
4250.000000	100.497	147.0055
4310.000000	100.491	144.7554
4370.000000	100.454	142.5022
4440.000000	100.374	139.9158
4500.000000	100.275	137.7696
4550.000000	100.173	136.0527
4620.000000	100.005	133.7823
4680.000000	99.841	131.9742
4750.000000	99.629	130.0504
4820.000000	99.401	128.3488
4870.000000	99.230	127.2710
4940.000000	98.984	125.9458
5000.000000	98.767	124.9788
5080.000000	98.471	123.9505
5150.000000	98.212	123.2850
5220.000000	97.958	122.8243
5300.000000	97.676	122.5757
5380.000000	97.406	122.6472
5450.000000	97.189	122.9732
5520.000000	96.997	123.5157
5600.000000	96.815	124.3395
5700.000000	96.646	125.5684
5800.000000	96.540	126.9147
5900.000000	96.493	128.2976
6000.000000	96.501	129.6529
6080.000000	96.547	130.6663
6150.000000	96.614	131.4607
6220.000000	96.702	132.1337
6300.000000	96.824	132.7137
6400.000000	96.996	133.1057
6500.000000	97.171	133.0952
6600.000000	97.330	132.6823
6700.000000	97.453	131.9207
6800.000000	97.523	130.9123
6900.000000	97.528	129.8157
7000.000000	97.474	128.8042
7100.000000	97.374	128.0087
7200.000000	97.249	127.4959
7300.000000	97.117	127.2635
7400.000000	96.994	127.2899
7500.000000	96.896	127.5350
7620.000000	96.833	127.9361
7750.000000	96.818	128.2363
7880.000000	96.849	128.3162
8000.000000	96.917	127.9897
8120.000000	96.993	127.0572
8250.000000	97.025	125.2394
8380.000000	96.929	122.7471
8500.000000	96.683	120.2668
8620.000000	96.281	118.0877
8750.000000	95.701	116.5028
8850.000000	95.183	116.0079
9000.000000	94.354	116.5451
9120.000000	93.687	118.0482
9250.000000	93.001	120.6483
9380.000000	92.378	124.1215
9500.000000	91.877	127.9830
9620.000000	91.458	132.3705
9750.000000	91.107	137.6027
9880.000000	90.875	143.2092
10000.000000	90.779	148.5900
10150.000000	90.831	155.3550
10300.000000	91.076	161.8300
10440.000000	91.463	167.2842
10600.000000	92.052	172.4380
10750.000000	92.688	175.8913
10900.000000	93.318	177.7824
11060.000000	93.872	178.1042
11200.000000	94.178	177.3153
11380.000000	94.267	175.6953
11500.000000	94.134	174.8289
11720.000000	93.598	175.0137
11800.000000	93.363	175.8082
12060.000000	92.720	-179.4271
12200.000000	92.539	-176.1921
12410.000000	92.486	-171.7445
12500.000000	92.511	-170.2289
12650.000000	92.554	-168.3208
12800.000000	92.545	-167.0342
13150.000000	92.170	-164.4841
13200.000000	92.081	-163.9779
13400.000000	91.694	-161.2584
13600.000000	91.348	-157.3932
13800.000000	91.153	-152.7176
14000.000000	91.165	-147.7925
14300.000000	91.589	-141.1321
14500.000000	92.102	-138.0363
14750.000000	92.841	-136.7947
15000.000000	93.371	-139.0044
15250.000000	93.333	-143.2766
15500.000000	92.598	-145.9738
15750.000000	91.438	-143.4640
16000.000000	90.589	-134.8324
16250.000000	90.976	-124.2200
16500.000000	92.456	-118.5152
16750.000000	94.129	-122.4701
17000.000000	94.700	-137.6604
17250.000000	93.538	-154.5914
17500.000000	90.805	-161.2079
17750.000000	87.652	-155.8033
18000.000000	85.539	-146.4040
18250.000000	84.622	-138.9436
18500.000000	84.247	-135.3005
18750.000000	83.898	-135.0180
19000.000000	83.319	-136.2585
19250.000000	82.501	-136.8287
19500.000000	81.639	-135.6981
19750.000000	80.983	-133.7852
