* Measurement data measured by REW V5.20.13
* Source: EXCL: Headset (KM-HIFI-384KHZ), MICROPHONE (Master Volume), 0, volume: 1.000
* Format: 256k Log Swept Sine, 1 sweep at -13.0 dBFS with no timing reference
* Dated: Aug 12, 2023 12:33:40 PM
* REW Settings:
*  C-weighting compensation: Off
*  Target level: 75.0 dB
* Note: 
* Measurement: Aug 12
* Smoothing: 1/24 octave
* Frequency Step: 1/48 octave
* Start Frequency: 20.000 Hz
*
* Freq(Hz)	SPL(dB)	Phase(degrees)
20.000000	101.288	-149.2501
20.299999	101.317	-149.9110
20.600000	101.350	-150.6008
20.900000	101.383	-151.3317
21.200001	101.410	-152.0985
21.400000	101.423	-152.6138
21.799999	101.438	-153.6163
22.000000	101.440	-154.0860
22.400000	101.441	-154.9405
22.700001	101.443	-155.5138
23.000000	101.448	-156.0471
23.299999	101.457	-156.5551
23.600000	101.468	-157.0438
24.000000	101.487	-157.6711
24.299999	101.506	-158.1343
24.700001	101.538	-158.7771
25.000000	101.564	-159.3098
25.400000	101.592	-160.1073
25.799999	101.600	-160.9583
26.200001	101.583	-161.7480
26.500000	101.561	-162.2325
26.900000	101.537	-162.7146
27.200001	101.533	-163.0008
27.600000	101.552	-163.3964
28.000000	101.588	-163.9263
28.500000	101.622	-164.7986
29.000000	101.626	-165.7223
29.500000	101.609	-166.5124
30.000000	101.600	-167.1617
30.400000	101.602	-167.6622
30.700001	101.606	-168.0569
31.100000	101.609	-168.6005
31.500000	101.605	-169.1262
32.000000	101.597	-169.7125
32.500000	101.595	-170.2388
33.000000	101.600	-170.7723
33.500000	101.604	-171.3446
34.000000	101.600	-171.9295
34.500000	101.589	-172.4860
35.000000	101.577	-173.0046
35.500000	101.567	-173.5077
36.000000	101.558	-174.0221
36.500000	101.548	-174.5546
37.000000	101.535	-175.0892
37.500000	101.520	-175.6058
38.200001	101.502	-176.2923
38.700001	101.494	-176.7759
39.500000	101.488	-177.5847
40.000000	101.484	-178.1211
40.599998	101.472	-178.7771
41.200001	101.449	-179.3840
41.799999	101.424	-179.8788
42.500000	101.411	179.6503
43.099998	101.418	179.1959
43.700001	101.422	178.6112
44.400002	101.400	177.8646
45.000000	101.360	177.3266
45.500000	101.327	176.9841
46.200001	101.298	176.5641
46.799999	101.281	176.1536
47.500000	101.256	175.6252
48.200001	101.225	175.1396
48.700001	101.207	174.8190
49.400002	101.188	174.3350
50.000000	101.168	173.8784
50.799999	101.130	173.3133
51.500000	101.100	172.8943
52.200001	101.081	172.4688
53.000000	101.062	171.9204
53.799999	101.038	171.3456
54.500000	101.014	170.8426
55.200001	100.988	170.3401
56.000000	100.956	169.7817
57.000000	100.914	169.1312
58.000000	100.878	168.5217
59.000000	100.845	167.9037
60.000000	100.805	167.2766
60.799999	100.767	166.8160
61.500000	100.732	166.4569
62.200001	100.700	166.1229
63.000000	100.666	165.7432
64.000000	100.625	165.2626
65.000000	100.589	164.7789
66.000000	100.556	164.2252
67.000000	100.510	163.6125
68.000000	100.452	163.0533
69.000000	100.393	162.5808
70.000000	100.341	162.1546
71.000000	100.294	161.7255
72.000000	100.248	161.2806
73.000000	100.199	160.8312
74.000000	100.149	160.3936
75.000000	100.098	159.9850
76.199997	100.041	159.5083
77.500000	99.979	158.9817
78.800003	99.914	158.4691
80.000000	99.852	157.9957
81.199997	99.784	157.5289
82.500000	99.710	157.0908
83.800003	99.645	156.6520
85.000000	99.584	156.2009
86.199997	99.518	155.7645
87.500000	99.445	155.3348
88.500000	99.389	155.0236
90.000000	99.307	154.5931
91.199997	99.245	154.2281
92.500000	99.172	153.8082
93.800003	99.094	153.4105
95.000000	99.022	153.0783
96.199997	98.954	152.7660
97.500000	98.881	152.4286
98.800003	98.807	152.1264
100.000000	98.740	151.8781
101.500000	98.658	151.5584
103.000000	98.573	151.2233
104.400002	98.489	150.8999
106.000000	98.391	150.5555
107.500000	98.305	150.2505
109.000000	98.223	149.9671
110.599998	98.136	149.6747
112.000000	98.057	149.4677
113.800003	97.955	149.2259
115.000000	97.885	149.0684
117.199997	97.765	148.7496
118.000000	97.722	148.6142
120.599998	97.582	148.1817
122.000000	97.506	148.0113
124.099998	97.395	147.8116
125.000000	97.347	147.7253
126.500000	97.266	147.5770
128.000000	97.186	147.4282
131.500000	97.000	147.1384
132.000000	96.974	147.1095
134.000000	96.872	146.9885
136.000000	96.764	146.8770
138.000000	96.656	146.7981
140.000000	96.551	146.7343
143.000000	96.398	146.6350
145.000000	96.294	146.5963
147.500000	96.170	146.6047
150.000000	96.050	146.6367
152.500000	95.927	146.6535
155.000000	95.801	146.6533
157.500000	95.670	146.6969
160.000000	95.545	146.8561
162.500000	95.435	147.0200
165.000000	95.332	147.0711
167.500000	95.215	147.0841
170.000000	95.102	147.2952
172.500000	95.006	147.4422
175.000000	94.898	147.5473
177.500000	94.791	147.6857
180.000000	94.677	147.8560
182.500000	94.563	148.1165
185.000000	94.471	148.3909
187.500000	94.392	148.6479
190.000000	94.314	148.9357
192.500000	94.230	149.2406
195.000000	94.146	149.5280
197.500000	94.061	149.8106
200.000000	93.977	150.1262
203.000000	93.876	150.5381
206.000000	93.774	150.9523
209.000000	93.680	151.3886
212.000000	93.588	151.8917
214.000000	93.517	152.3359
218.000000	93.379	153.3698
220.000000	93.353	153.7538
224.000000	93.360	153.8993
227.000000	93.285	153.8981
230.000000	93.181	154.3778
233.000000	93.127	155.0523
236.000000	93.105	155.7568
240.000000	93.098	156.3947
243.000000	93.089	156.6652
247.000000	93.061	157.0442
250.000000	93.035	157.4020
254.000000	92.982	157.9266
258.000000	92.915	158.3693
262.000000	92.861	158.7043
265.000000	92.819	159.0014
269.000000	92.751	159.4523
272.000000	92.704	159.7466
276.000000	92.663	160.1508
280.000000	92.633	160.6070
285.000000	92.584	161.1443
290.000000	92.541	161.6592
295.000000	92.498	162.1685
300.000000	92.454	162.6862
304.000000	92.419	163.0906
307.000000	92.395	163.3949
311.000000	92.371	163.7873
315.000000	92.353	164.1645
320.000000	92.330	164.6566
325.000000	92.302	165.1528
330.000000	92.271	165.6098
335.000000	92.245	166.0508
340.000000	92.222	166.4709
345.000000	92.202	166.8535
350.000000	92.188	167.2496
355.000000	92.177	167.6385
360.000000	92.163	168.0138
365.000000	92.149	168.3883
370.000000	92.138	168.7458
375.000000	92.126	169.0982
382.000000	92.098	169.5651
387.000000	92.082	169.8969
395.000000	92.060	170.4747
400.000000	92.040	170.7949
406.000000	92.020	171.1700
412.000000	92.002	171.5699
418.000000	91.988	171.9767
425.000000	91.967	172.4291
431.000000	91.941	172.8326
437.000000	91.917	173.2495
444.000000	91.886	173.7166
450.000000	91.856	174.1650
455.000000	91.828	174.6022
462.000000	91.794	175.3254
468.000000	91.779	176.0555
475.000000	91.774	177.0758
482.000000	91.836	178.3245
487.000000	91.966	179.1770
494.000000	92.243	179.4903
500.000000	92.409	178.6616
508.000000	92.384	177.4038
515.000000	92.270	176.9795
522.000000	92.174	177.0243
530.000000	92.098	177.3429
538.000000	92.049	177.7731
545.000000	92.021	178.1311
552.000000	91.996	178.4645
560.000000	91.971	178.8504
570.000000	91.947	179.3593
580.000000	91.927	179.8738
590.000000	91.908	-179.6188
600.000000	91.898	-179.1261
608.000000	91.893	-178.7378
615.000000	91.888	-178.3956
622.000000	91.880	-178.0504
630.000000	91.870	-177.6645
640.000000	91.861	-177.1837
650.000000	91.855	-176.6787
660.000000	91.849	-176.1696
670.000000	91.845	-175.6540
680.000000	91.841	-175.1242
690.000000	91.838	-174.5925
700.000000	91.837	-174.0497
710.000000	91.838	-173.4987
720.000000	91.840	-172.9380
730.000000	91.844	-172.3687
740.000000	91.850	-171.7979
750.000000	91.859	-171.2175
762.000000	91.871	-170.5049
775.000000	91.888	-169.7226
788.000000	91.909	-168.9194
800.000000	91.933	-168.1638
812.000000	91.961	-167.4037
825.000000	91.997	-166.5617
838.000000	92.041	-165.6928
850.000000	92.089	-164.8769
862.000000	92.146	-164.0554
875.000000	92.220	-163.1632
885.000000	92.289	-162.4816
900.000000	92.411	-161.4896
912.000000	92.527	-160.7499
925.000000	92.669	-160.0544
938.000000	92.825	-159.5243
950.000000	92.971	-159.2148
962.000000	93.111	-159.0639
975.000000	93.244	-159.0232
988.000000	93.355	-159.0493
1000.000000	93.440	-159.0781
1015.000000	93.529	-159.0619
1030.000000	93.611	-158.9716
1044.000000	93.685	-158.8318
1060.000000	93.770	-158.6338
1075.000000	93.853	-158.4360
1090.000000	93.938	-158.2402
1106.000000	94.031	-158.0366
1120.000000	94.114	-157.8719
1138.000000	94.221	-157.6922
1150.000000	94.292	-157.5931
1172.000000	94.420	-157.4446
1180.000000	94.466	-157.3985
1206.000000	94.612	-157.2809
1220.000000	94.688	-157.2401
1241.000000	94.799	-157.1986
1250.000000	94.846	-157.1865
1265.000000	94.921	-157.1722
1280.000000	94.995	-157.1626
1315.000000	95.161	-157.1581
1320.000000	95.184	-157.1593
1340.000000	95.275	-157.1630
1360.000000	95.361	-157.1611
1380.000000	95.445	-157.1563
1400.000000	95.529	-157.1505
1430.000000	95.654	-157.1364
1450.000000	95.738	-157.1236
1475.000000	95.844	-157.1034
1500.000000	95.951	-157.0791
1525.000000	96.060	-157.0520
1550.000000	96.170	-157.0214
1575.000000	96.281	-156.9901
1600.000000	96.394	-156.9624
1625.000000	96.509	-156.9406
1650.000000	96.627	-156.9272
1675.000000	96.748	-156.9267
1700.000000	96.871	-156.9391
1725.000000	96.998	-156.9663
1750.000000	97.126	-157.0112
1775.000000	97.258	-157.0759
1800.000000	97.393	-157.1635
1825.000000	97.530	-157.2779
1850.000000	97.671	-157.4230
1875.000000	97.815	-157.6001
1900.000000	97.962	-157.8103
1925.000000	98.111	-158.0580
1950.000000	98.262	-158.3449
1975.000000	98.414	-158.6719
2000.000000	98.568	-159.0425
2030.000000	98.754	-159.5521
2060.000000	98.941	-160.1332
2090.000000	99.129	-160.7802
2120.000000	99.322	-161.5196
2140.000000	99.451	-162.0723
2180.000000	99.702	-163.2812
2200.000000	99.822	-163.9314
2240.000000	100.050	-165.3579
2270.000000	100.212	-166.5347
2300.000000	100.364	-167.7969
2330.000000	100.506	-169.1428
2360.000000	100.634	-170.5664
2400.000000	100.783	-172.5674
2430.000000	100.874	-174.1304
2470.000000	100.967	-176.2719
2500.000000	101.014	-177.8983
2540.000000	101.045	179.9371
2580.000000	101.043	177.8095
2620.000000	101.008	175.7588
2650.000000	100.961	174.2956
2690.000000	100.877	172.4707
2720.000000	100.800	171.2069
2760.000000	100.684	169.6652
2800.000000	100.557	168.2859
2850.000000	100.389	166.7871
2900.000000	100.214	165.5303
2950.000000	100.040	164.4984
3000.000000	99.871	163.6726
3040.000000	99.742	163.1460
3070.000000	99.650	162.8214
3110.000000	99.534	162.4724
3150.000000	99.426	162.2133
3200.000000	99.302	162.0221
3250.000000	99.198	161.9400
3300.000000	99.122	161.9313
3350.000000	99.074	161.9833
3400.000000	99.054	162.0663
3450.000000	99.066	162.1324
3500.000000	99.106	162.1481
3550.000000	99.165	162.1125
3600.000000	99.241	161.9857
3650.000000	99.337	161.7409
3700.000000	99.448	161.3625
3750.000000	99.572	160.8381
3820.000000	99.760	159.8412
3870.000000	99.899	158.9305
3950.000000	100.120	157.1188
4000.000000	100.251	155.7660
4060.000000	100.392	153.9307
4120.000000	100.506	151.8964
4180.000000	100.588	149.7088
4250.000000	100.639	147.0380
4310.000000	100.644	144.7188
4370.000000	100.615	142.4245
4440.000000	100.544	139.8179
4500.000000	100.454	137.6665
4550.000000	100.361	135.9477
4620.000000	100.207	133.6733
4680.000000	100.055	131.8530
4750.000000	99.856	129.9002
4820.000000	99.637	128.1600
4870.000000	99.472	127.0557
4940.000000	99.231	125.7053
5000.000000	99.018	124.7284
5080.000000	98.725	123.6974
5150.000000	98.468	123.0441
5220.000000	98.218	122.6173
5300.000000	97.945	122.4264
5380.000000	97.688	122.5515
5450.000000	97.486	122.9017
5520.000000	97.309	123.4420
5600.000000	97.145	124.2333
5700.000000	96.997	125.3815
5800.000000	96.909	126.6099
5900.000000	96.874	127.8530
6000.000000	96.889	129.0581
6080.000000	96.935	129.9541
6150.000000	96.999	130.6589
6220.000000	97.082	131.2627
6300.000000	97.198	131.7912
6400.000000	97.363	132.1472
6500.000000	97.535	132.1108
6600.000000	97.691	131.6737
6700.000000	97.810	130.8944
6800.000000	97.875	129.8962
6900.000000	97.882	128.8386
7000.000000	97.837	127.8806
7100.000000	97.760	127.1184
7200.000000	97.667	126.5508
7300.000000	97.564	126.1694
7400.000000	97.463	125.9899
7500.000000	97.382	125.9817
7620.000000	97.328	126.0473
7750.000000	97.323	125.9522
7880.000000	97.354	125.4507
8000.000000	97.386	124.4755
8120.000000	97.382	122.9329
8250.000000	97.284	120.6936
8380.000000	97.043	118.1402
8500.000000	96.672	115.9061
8620.000000	96.168	114.1854
8750.000000	95.505	113.2186
8850.000000	94.942	113.2431
9000.000000	94.072	114.6136
9120.000000	93.402	116.7751
9250.000000	92.737	120.0149
9380.000000	92.153	124.0330
9500.000000	91.696	128.3181
9620.000000	91.325	133.0599
9750.000000	91.032	138.6171
9880.000000	90.864	144.5082
10000.000000	90.834	150.1134
10150.000000	90.981	157.0893
10300.000000	91.335	163.6615
10440.000000	91.834	169.0363
10600.000000	92.545	173.8499
10750.000000	93.272	176.7653
10900.000000	93.964	177.9703
11060.000000	94.550	177.4624
11200.000000	94.848	175.8807
11380.000000	94.859	173.4431
11500.000000	94.656	172.3361
11720.000000	94.019	172.4227
11800.000000	93.749	173.2199
12060.000000	92.981	178.3155
12200.000000	92.741	-177.9693
12410.000000	92.664	-172.4593
12500.000000	92.713	-170.4381
12650.000000	92.846	-167.7900
12800.000000	92.966	-166.0719
13150.000000	92.881	-163.9722
13200.000000	92.819	-163.6379
13400.000000	92.496	-161.6455
13600.000000	92.159	-158.4085
13800.000000	91.938	-154.1857
14000.000000	91.896	-149.5371
14300.000000	92.192	-142.7654
14500.000000	92.619	-138.9882
14750.000000	93.349	-135.9957
15000.000000	94.112	-135.8348
15250.000000	94.607	-138.5926
15500.000000	94.609	-142.6486
15750.000000	94.115	-145.8538
16000.000000	93.112	-145.5340
16250.000000	92.305	-137.6720
16500.000000	93.114	-129.6483
16750.000000	94.330	-132.1555
17000.000000	94.422	-141.7460
17250.000000	93.708	-152.1647
17500.000000	91.818	-158.8366
17750.000000	89.252	-154.5636
18000.000000	87.681	-146.2411
18250.000000	87.225	-140.6731
18500.000000	87.149	-139.2997
18750.000000	87.014	-141.5423
19000.000000	86.592	-146.0657
19250.000000	85.772	-150.9524
19500.000000	84.578	-154.2637
19750.000000	83.250	-155.2328
