* Measurement data measured by REW V5.20.13
* Source: Trace Arithmetic result A * B
* Format: Trace Arithmetic result A * B
* Dated: Sep 9, 2023 10:57:06 PM
* REW Settings:
*  C-weighting compensation: Off
*  Target level: 75.0 dB
* Note: Trace Arithmetic A times B A = EQ RMS Average 1 B = Delta 10dB
* Measurement: A times B
* Smoothing: 1/24 octave
* Frequency Step: 1/48 octave
* Start Frequency: 20.000 Hz
*
* Freq(Hz)	SPL(dB)
20.000000	4.712
20.299999	4.689
20.600000	4.663
20.900000	4.639
21.200001	4.616
21.400000	4.602
21.799999	4.577
22.000000	4.564
22.400000	4.541
22.700001	4.524
23.000000	4.508
23.299999	4.493
23.600000	4.478
24.000000	4.459
24.299999	4.446
24.700001	4.428
25.000000	4.416
25.400000	4.401
25.799999	4.386
26.200001	4.371
26.500000	4.361
26.900000	4.347
27.200001	4.337
27.600000	4.324
28.000000	4.311
28.500000	4.295
29.000000	4.279
29.500000	4.264
30.000000	4.250
30.400000	4.237
30.700001	4.228
31.100000	4.216
31.500000	4.203
32.000000	4.188
32.500000	4.173
33.000000	4.158
33.500000	4.143
34.000000	4.127
34.500000	4.112
35.000000	4.097
35.500000	4.082
36.000000	4.067
36.500000	4.052
37.000000	4.037
37.500000	4.023
38.200001	4.004
38.700001	3.990
39.500000	3.967
40.000000	3.954
40.599998	3.938
41.200001	3.923
41.799999	3.908
42.500000	3.891
43.099998	3.877
43.700001	3.863
44.400002	3.847
45.000000	3.834
45.500000	3.823
46.200001	3.808
46.799999	3.795
47.500000	3.781
48.200001	3.768
48.700001	3.757
49.400002	3.744
50.000000	3.732
50.799999	3.717
51.500000	3.704
52.200001	3.691
53.000000	3.677
53.799999	3.662
54.500000	3.650
55.200001	3.637
56.000000	3.623
57.000000	3.605
58.000000	3.587
59.000000	3.569
60.000000	3.551
60.799999	3.537
61.500000	3.524
62.200001	3.511
63.000000	3.497
64.000000	3.479
65.000000	3.461
66.000000	3.443
67.000000	3.425
68.000000	3.407
69.000000	3.388
70.000000	3.370
71.000000	3.352
72.000000	3.333
73.000000	3.314
74.000000	3.296
75.000000	3.278
76.199997	3.256
77.500000	3.232
78.800003	3.209
80.000000	3.187
81.199997	3.166
82.500000	3.143
83.800003	3.120
85.000000	3.099
86.199997	3.079
87.500000	3.056
88.500000	3.039
90.000000	3.014
91.199997	2.993
92.500000	2.972
93.800003	2.950
95.000000	2.930
96.199997	2.910
97.500000	2.888
98.800003	2.866
100.000000	2.846
101.500000	2.820
103.000000	2.795
104.400002	2.771
106.000000	2.744
107.500000	2.719
109.000000	2.694
110.599998	2.667
112.000000	2.644
113.800003	2.614
115.000000	2.594
117.199997	2.557
118.000000	2.544
120.599998	2.502
122.000000	2.480
124.099998	2.447
125.000000	2.433
126.500000	2.410
128.000000	2.387
131.500000	2.334
132.000000	2.327
134.000000	2.298
136.000000	2.270
138.000000	2.243
140.000000	2.217
143.000000	2.178
145.000000	2.153
147.500000	2.123
150.000000	2.094
152.500000	2.065
155.000000	2.038
157.500000	2.012
160.000000	1.987
162.500000	1.962
165.000000	1.937
167.500000	1.913
170.000000	1.890
172.500000	1.867
175.000000	1.846
177.500000	1.824
180.000000	1.803
182.500000	1.783
185.000000	1.763
187.500000	1.743
190.000000	1.724
192.500000	1.706
195.000000	1.688
197.500000	1.670
200.000000	1.653
203.000000	1.633
206.000000	1.615
209.000000	1.597
212.000000	1.579
214.000000	1.568
218.000000	1.546
220.000000	1.535
224.000000	1.516
227.000000	1.502
230.000000	1.489
233.000000	1.477
236.000000	1.464
240.000000	1.449
243.000000	1.439
247.000000	1.425
250.000000	1.415
254.000000	1.402
258.000000	1.390
262.000000	1.377
265.000000	1.368
269.000000	1.356
272.000000	1.347
276.000000	1.335
280.000000	1.323
285.000000	1.309
290.000000	1.295
295.000000	1.281
300.000000	1.267
304.000000	1.257
307.000000	1.249
311.000000	1.238
315.000000	1.227
320.000000	1.215
325.000000	1.203
330.000000	1.190
335.000000	1.179
340.000000	1.167
345.000000	1.156
350.000000	1.145
355.000000	1.134
360.000000	1.123
365.000000	1.112
370.000000	1.101
375.000000	1.090
382.000000	1.075
387.000000	1.063
395.000000	1.044
400.000000	1.032
406.000000	1.017
412.000000	1.002
418.000000	0.986
425.000000	0.967
431.000000	0.950
437.000000	0.933
444.000000	0.913
450.000000	0.896
455.000000	0.882
462.000000	0.862
468.000000	0.845
475.000000	0.825
482.000000	0.805
487.000000	0.791
494.000000	0.771
500.000000	0.754
508.000000	0.730
515.000000	0.710
522.000000	0.690
530.000000	0.667
538.000000	0.644
545.000000	0.625
552.000000	0.606
560.000000	0.584
570.000000	0.558
580.000000	0.533
590.000000	0.509
600.000000	0.485
608.000000	0.466
615.000000	0.450
622.000000	0.434
630.000000	0.415
640.000000	0.391
650.000000	0.367
660.000000	0.343
670.000000	0.317
680.000000	0.291
690.000000	0.265
700.000000	0.238
710.000000	0.211
720.000000	0.184
730.000000	0.157
740.000000	0.131
750.000000	0.107
762.000000	0.079
775.000000	0.049
788.000000	0.023
800.000000	0.001
812.000000	-0.019
825.000000	-0.038
838.000000	-0.055
850.000000	-0.068
862.000000	-0.080
875.000000	-0.091
885.000000	-0.098
900.000000	-0.107
912.000000	-0.112
925.000000	-0.114
938.000000	-0.114
950.000000	-0.110
962.000000	-0.103
975.000000	-0.091
988.000000	-0.074
1000.000000	-0.052
1015.000000	-0.019
1030.000000	0.021
1044.000000	0.063
1060.000000	0.116
1075.000000	0.168
1090.000000	0.220
1106.000000	0.274
1120.000000	0.318
1138.000000	0.371
1150.000000	0.404
1172.000000	0.459
1180.000000	0.478
1206.000000	0.538
1220.000000	0.569
1241.000000	0.616
1250.000000	0.637
1265.000000	0.672
1280.000000	0.707
1315.000000	0.792
1320.000000	0.805
1340.000000	0.856
1360.000000	0.909
1380.000000	0.963
1400.000000	1.018
1430.000000	1.103
1450.000000	1.161
1475.000000	1.236
1500.000000	1.314
1525.000000	1.397
1550.000000	1.483
1575.000000	1.571
1600.000000	1.662
1625.000000	1.755
1650.000000	1.851
1675.000000	1.949
1700.000000	2.050
1725.000000	2.155
1750.000000	2.263
1775.000000	2.376
1800.000000	2.494
1825.000000	2.616
1850.000000	2.743
1875.000000	2.874
1900.000000	3.009
1925.000000	3.149
1950.000000	3.293
1975.000000	3.441
2000.000000	3.594
2030.000000	3.784
2060.000000	3.980
2090.000000	4.181
2120.000000	4.388
2140.000000	4.527
2180.000000	4.809
2200.000000	4.950
2240.000000	5.230
2270.000000	5.436
2300.000000	5.638
2330.000000	5.835
2360.000000	6.026
2400.000000	6.272
2430.000000	6.449
2470.000000	6.674
2500.000000	6.835
2540.000000	7.042
2580.000000	7.238
2620.000000	7.424
2650.000000	7.557
2690.000000	7.725
2720.000000	7.842
2760.000000	7.985
2800.000000	8.113
2850.000000	8.249
2900.000000	8.359
2950.000000	8.442
3000.000000	8.500
3040.000000	8.529
3070.000000	8.541
3110.000000	8.545
3150.000000	8.536
3200.000000	8.507
3250.000000	8.460
3300.000000	8.396
3350.000000	8.318
3400.000000	8.226
3450.000000	8.122
3500.000000	8.010
3550.000000	7.891
3600.000000	7.765
3650.000000	7.634
3700.000000	7.499
3750.000000	7.359
3820.000000	7.159
3870.000000	7.015
3950.000000	6.784
4000.000000	6.642
4060.000000	6.475
4120.000000	6.313
4180.000000	6.159
4250.000000	5.992
4310.000000	5.861
4370.000000	5.742
4440.000000	5.620
4500.000000	5.529
4550.000000	5.463
4620.000000	5.382
4680.000000	5.321
4750.000000	5.255
4820.000000	5.191
4870.000000	5.143
4940.000000	5.071
5000.000000	5.002
5080.000000	4.899
5150.000000	4.800
5220.000000	4.694
5300.000000	4.565
5380.000000	4.432
5450.000000	4.314
5520.000000	4.196
5600.000000	4.065
5700.000000	3.907
5800.000000	3.760
5900.000000	3.626
6000.000000	3.507
6080.000000	3.425
6150.000000	3.362
6220.000000	3.309
6300.000000	3.259
6400.000000	3.213
6500.000000	3.185
6600.000000	3.173
6700.000000	3.177
6800.000000	3.194
6900.000000	3.221
7000.000000	3.255
7100.000000	3.292
7200.000000	3.329
7300.000000	3.361
7400.000000	3.384
7500.000000	3.396
7620.000000	3.389
7750.000000	3.350
7880.000000	3.273
8000.000000	3.165
8120.000000	3.020
8250.000000	2.818
8380.000000	2.571
8500.000000	2.306
8620.000000	2.007
8750.000000	1.650
8850.000000	1.359
9000.000000	0.906
9120.000000	0.542
9250.000000	0.160
9380.000000	-0.195
9500.000000	-0.486
9620.000000	-0.736
9750.000000	-0.952
9880.000000	-1.112
10000.000000	-1.206
10150.000000	-1.248
10300.000000	-1.205
10440.000000	-1.104
10600.000000	-0.969
10750.000000	-0.901
10900.000000	-0.951
11060.000000	-1.151
11200.000000	-1.429
11380.000000	-1.875
11500.000000	-2.192
11720.000000	-2.780
11800.000000	-2.984
12060.000000	-3.551
12200.000000	-3.760
12410.000000	-3.918
12500.000000	-3.941
12650.000000	-3.934
12800.000000	-3.886
13150.000000	-3.652
13200.000000	-3.606
13400.000000	-3.402
13600.000000	-3.195
13800.000000	-3.032
14000.000000	-2.956
14300.000000	-3.034
14500.000000	-3.209
14750.000000	-3.541
15000.000000	-3.955
15250.000000	-4.409
15500.000000	-4.867
15750.000000	-5.306
16000.000000	-5.718
16250.000000	-6.102
16500.000000	-6.464
16750.000000	-6.806
17000.000000	-7.126
17250.000000	-7.417
17500.000000	-7.668
17750.000000	-7.863
18000.000000	-7.978
18250.000000	-7.977
18500.000000	-7.813
18750.000000	-7.464
19000.000000	-7.058
19250.000000	-7.045
19500.000000	-8.064
19750.000000	-10.413
20000.000000	-14.175
